{
  "entry": "F1188",
  "last_updated": "2022-10-17",
  "number_of_revisions": "2",
  "histories": [
    {
      "x4_code": "(20130311C)",
      "free_txt": []
    },
    {
      "x4_code": "(20220429A)",
      "free_txt": [
        " SD: Correction in Subent 002."
      ]
    }
  ],
  "bib_record": {
    "title": "Total yield measurements in Al-27(p,gamma)Si-28",
    "authors": [
      {
        "name": "P.B.Lyons"
      },
      {
        "name": "J.W.Toevs"
      },
      {
        "name": "D.G.Sargood"
      }
    ],
    "institutes": [
      {
        "x4_code": "(1USACAL)",
        "free_txt": ""
      },
      {
        "x4_code": "(3AULAML)",
        "free_txt": ""
      }
    ],
    "references": {
      "0": [
        {
          "x4_code": "(J,NP/A,130,1,1969)",
          "free_txt": [],
          "publication_year": "1969"
        }
      ]
    },
    "facilities": {
      "0": [
        {
          "x4_code": "(ACCEL,1USACAL)",
          "free_txt": [
            " 3 MeV electrostatic accelerator was",
            "used."
          ],
          "facility_type": "(ACCEL)",
          "institute": "(1USACAL)"
        }
      ]
    }
  },
  "data_tables": {
    "001": {
      "common": null
    },
    "002": {
      "reaction": {
        "0": {
          "x4_code": "(13-AL-27(P,G)14-SI-28,,SIG)",
          "0": {
            "code": [
              "13-AL-27",
              [
                "P,G"
              ],
              "14-SI-28,,SIG"
            ],
            "type": null,
            "target": "13-AL-27",
            "process": "P,G",
            "sf49": "14-SI-28,,SIG",
            "sf4": "14-SI-28",
            "sf5": null,
            "sf6": "SIG",
            "sf7": null,
            "sf8": null,
            "sf9": null
          },
          "type": null,
          "free_text": ""
        }
      },
      "common": {
        "heads": [
          "EN-ERR-DIG",
          "ERR-DIG"
        ],
        "units": [
          "KEV",
          "MICRO-B"
        ],
        "data": [
          [
            1.4
          ],
          [
            0.017
          ]
        ]
      },
      "data": {
        "heads": [
          "EN",
          "DATA-MAX"
        ],
        "units": [
          "KEV",
          "MICRO-B"
        ],
        "data": [
          [
            1421.0,
            1425.7,
            1430.9,
            1437.7,
            1443.0,
            1449.3,
            1455.0,
            1460.3,
            1467.1,
            1471.8,
            1477.6,
            1481.8,
            1488.1,
            1492.8,
            1499.6,
            1504.4,
            1509.1,
            1514.3,
            1518.5,
            1524.3,
            1527.5,
            1533.8,
            1542.7,
            1547.9,
            1556.8,
            1564.7,
            1571.0,
            1579.8,
            1585.6,
            1591.9,
            1596.6,
            1602.9,
            1606.5,
            1613.3,
            1618.5,
            1626.4,
            1632.1,
            1639.5,
            1646.3,
            1654.1,
            1662.0,
            1665.1,
            1673.5,
            1681.3,
            1688.7,
            1696.5,
            1704.4,
            1711.2,
            1718.0,
            1725.9,
            1733.2,
            1741.6,
            1748.4,
            1757.3,
            1767.3,
            1772.0,
            1783.5,
            1791.9,
            1799.7,
            1808.1,
            1812.8,
            1815.4,
            1823.8,
            1830.6,
            1836.8,
            1845.2,
            1850.4,
            1857.7,
            1862.4,
            1868.7,
            1876.0,
            1882.8,
            1887.5,
            1895.9,
            1902.1,
            1908.9,
            1916.8,
            1924.6,
            1929.8,
            1937.1,
            1943.9,
            1950.2,
            1957.5,
            1963.8,
            1968.5,
            1978.4,
            1985.2,
            1993.1,
            2000.4,
            2008.3,
            2015.1,
            2020.9,
            2027.7,
            2033.5,
            2040.4,
            2045.6,
            2050.9,
            2051.7,
            2054.8,
            2061.5,
            2067.6,
            2078.4,
            2087.1,
            2092.2,
            2101.4,
            2109.1,
            2118.3,
            2127.0,
            2137.2,
            2145.9,
            2153.1,
            2160.8,
            2168.4,
            2175.6,
            2183.7,
            2189.9,
            2197.5,
            2206.7,
            2214.4,
            2222.6,
            2229.3,
            2236.9,
            2242.6,
            2249.2,
            2256.4,
            2265.1,
            2273.3,
            2281.5,
            2287.2,
            2293.3,
            2299.5,
            2308.7,
            2317.9,
            2324.0,
            2332.8,
            2343.5,
            2350.1,
            2357.3,
            2361.4,
            2367.5,
            2373.6,
            2379.2,
            2384.3,
            2390.4,
            2394.5,
            2399.1,
            2404.2,
            2408.8,
            2417.0,
            2424.1,
            2431.3,
            2439.0,
            2446.1,
            2453.3,
            2464.1,
            2473.3,
            2482.5,
            2490.6,
            2500.9,
            2509.1,
            2517.8,
            2525.9,
            2535.7,
            2543.8,
            2552.0,
            2558.2,
            2567.9,
            2576.1,
            2585.8,
            2593.4,
            2602.1,
            2612.4
          ],
          [
            4.176,
            4.177,
            4.178,
            4.153,
            4.129,
            4.13,
            4.005,
            3.93,
            3.855,
            3.73,
            3.554,
            3.403,
            3.228,
            3.002,
            2.776,
            2.575,
            2.323,
            2.072,
            1.845,
            1.569,
            1.469,
            1.293,
            1.168,
            1.169,
            1.17,
            1.247,
            1.298,
            1.527,
            1.654,
            1.856,
            2.059,
            2.261,
            2.514,
            2.792,
            2.969,
            2.971,
            3.047,
            3.048,
            3.074,
            3.151,
            3.304,
            3.405,
            3.532,
            3.634,
            3.711,
            3.662,
            3.537,
            3.437,
            3.312,
            3.212,
            3.137,
            3.113,
            3.064,
            2.914,
            2.89,
            2.891,
            2.867,
            2.97,
            3.122,
            3.501,
            3.805,
            4.108,
            4.437,
            4.589,
            4.867,
            5.07,
            5.298,
            5.576,
            5.879,
            6.183,
            6.537,
            6.815,
            7.018,
            7.397,
            7.726,
            8.004,
            8.232,
            8.536,
            8.713,
            9.067,
            9.346,
            9.624,
            9.852,
            10.004,
            10.156,
            10.284,
            10.285,
            10.235,
            10.11,
            9.986,
            9.659,
            9.433,
            9.131,
            8.779,
            8.477,
            8.15,
            7.924,
            7.765,
            7.464,
            7.163,
            6.938,
            6.763,
            6.764,
            6.765,
            6.666,
            6.667,
            6.694,
            6.67,
            6.672,
            6.673,
            6.775,
            6.876,
            7.054,
            7.331,
            7.484,
            7.686,
            7.863,
            7.99,
            8.067,
            8.093,
            7.943,
            7.794,
            7.669,
            7.569,
            7.369,
            7.119,
            6.894,
            6.593,
            6.418,
            6.268,
            6.218,
            6.069,
            5.919,
            5.845,
            5.771,
            5.772,
            5.899,
            6.152,
            6.379,
            6.631,
            6.859,
            7.237,
            7.539,
            7.867,
            8.12,
            8.472,
            8.8,
            9.103,
            9.305,
            9.306,
            9.257,
            9.133,
            8.983,
            8.858,
            8.885,
            8.937,
            9.013,
            9.065,
            9.117,
            9.168,
            9.195,
            9.272,
            9.424,
            9.45,
            9.502,
            9.604,
            9.655,
            9.732,
            9.809,
            9.936,
            9.937,
            9.964
          ]
        ]
      }
    },
    "003": {
      "reaction": {
        "0": {
          "x4_code": "(13-AL-27(P,G)14-SI-28,,SIG,,REL)",
          "0": {
            "code": [
              "13-AL-27",
              [
                "P,G"
              ],
              "14-SI-28,,SIG,,REL"
            ],
            "type": null,
            "target": "13-AL-27",
            "process": "P,G",
            "sf49": "14-SI-28,,SIG,,REL",
            "sf4": "14-SI-28",
            "sf5": null,
            "sf6": "SIG",
            "sf7": null,
            "sf8": "REL",
            "sf9": null
          },
          "type": null,
          "free_text": ""
        }
      },
      "common": {
        "heads": [
          "EN-ERR",
          "DATA-ERR"
        ],
        "units": [
          "KEV",
          "ARB-UNITS"
        ],
        "data": [
          [
            1.1
          ],
          [
            0.0337
          ]
        ]
      },
      "data": {
        "heads": [
          "EN",
          "DATA"
        ],
        "units": [
          "KEV",
          "ARB-UNITS"
        ],
        "data": [
          [
            1419.4,
            1422.0,
            1424.1,
            1425.2,
            1428.3,
            1432.0,
            1432.5,
            1435.6,
            1437.2,
            1439.3,
            1442.9,
            1444.5,
            1447.1,
            1449.7,
            1450.2,
            1451.3,
            1451.3,
            1453.3,
            1453.3,
            1453.8,
            1453.8,
            1454.3,
            1455.3,
            1455.3,
            1455.3,
            1456.3,
            1458.4,
            1458.5,
            1459.0,
            1459.5,
            1459.5,
            1459.6,
            1459.6,
            1460.1,
            1460.6,
            1461.7,
            1461.7,
            1462.8,
            1462.8,
            1465.4,
            1467.0,
            1468.6,
            1472.8,
            1475.4,
            1476.9,
            1479.6,
            1483.7,
            1487.4,
            1490.5,
            1493.1,
            1496.3,
            1497.3,
            1498.3,
            1498.8,
            1499.3,
            1499.3,
            1499.3,
            1499.8,
            1500.3,
            1500.3,
            1500.3,
            1501.3,
            1502.4,
            1504.0,
            1504.5,
            1505.6,
            1507.1,
            1509.7,
            1510.2,
            1511.2,
            1511.2,
            1511.7,
            1512.1,
            1513.1,
            1513.6,
            1513.6,
            1514.1,
            1514.6,
            1515.1,
            1515.1,
            1515.4,
            1516.1,
            1516.6,
            1517.1,
            1519.2,
            1520.2,
            1521.3,
            1521.3,
            1521.3,
            1522.4,
            1523.4,
            1523.5,
            1524.5,
            1525.5,
            1526.1,
            1526.1,
            1526.1,
            1526.1,
            1526.1,
            1526.1,
            1526.7,
            1526.7,
            1527.2,
            1527.3,
            1527.3,
            1527.3,
            1527.3,
            1527.4,
            1527.4,
            1527.4,
            1528.5,
            1528.5,
            1529.1,
            1529.1,
            1529.6,
            1529.8,
            1530.2,
            1530.7,
            1531.3,
            1531.8,
            1531.9,
            1534.4,
            1536.0,
            1538.1,
            1540.8,
            1544.4,
            1549.1,
            1553.8,
            1559.6,
            1562.7,
            1563.8,
            1564.8,
            1564.8,
            1566.3,
            1567.9,
            1569.0,
            1570.0,
            1570.0,
            1571.1,
            1572.6,
            1574.2,
            1574.2,
            1575.2,
            1576.2,
            1576.2,
            1576.2,
            1577.2,
            1577.6,
            1577.6,
            1577.7,
            1578.2,
            1580.3,
            1580.7,
            1580.8,
            1580.8,
            1581.3,
            1581.4,
            1581.9,
            1581.9,
            1581.9,
            1581.9,
            1582.5,
            1583.5,
            1583.6,
            1583.6,
            1585.2,
            1585.7,
            1586.0,
            1586.0,
            1586.1,
            1586.1,
            1586.1,
            1586.1,
            1586.2,
            1586.2,
            1586.4,
            1586.5,
            1586.5,
            1586.5,
            1586.6,
            1586.6,
            1586.6,
            1587.0,
            1587.6,
            1587.6,
            1587.6,
            1587.7,
            1588.2,
            1589.8,
            1589.8,
            1590.3,
            1590.3,
            1590.9,
            1592.5,
            1592.5,
            1593.6,
            1593.7,
            1594.1,
            1594.5,
            1594.8,
            1594.8,
            1594.8,
            1594.8,
            1594.8,
            1594.9,
            1594.9,
            1595.1,
            1595.1,
            1595.2,
            1595.2,
            1595.2,
            1595.2,
            1595.2,
            1595.4,
            1595.5,
            1595.5,
            1595.5,
            1595.5,
            1595.6,
            1597.2,
            1597.2,
            1597.3,
            1597.7,
            1597.8,
            1598.8,
            1602.0,
            1606.1,
            1611.4,
            1619.2,
            1626.0,
            1632.3,
            1637.5,
            1641.2,
            1643.8,
            1644.8,
            1645.8,
            1646.9,
            1647.9,
            1650.5,
            1653.7,
            1655.2,
            1656.7,
            1656.8,
            1657.7,
            1657.7,
            1657.8,
            1658.2,
            1658.7,
            1659.1,
            1659.1,
            1659.2,
            1659.2,
            1659.5,
            1659.5,
            1659.6,
            1659.6,
            1659.6,
            1660.5,
            1660.5,
            1660.5,
            1660.5,
            1661.0,
            1661.0,
            1661.0,
            1661.4,
            1661.4,
            1661.4,
            1662.9,
            1662.9,
            1663.9,
            1663.9,
            1664.4,
            1665.5,
            1665.5,
            1665.6,
            1666.1,
            1666.6,
            1666.6,
            1666.7,
            1667.2,
            1667.7,
            1667.8,
            1667.8,
            1668.8,
            1669.4,
            1669.9,
            1669.9,
            1670.9,
            1670.9,
            1670.9,
            1671.0,
            1671.0,
            1671.2,
            1671.2,
            1671.2,
            1671.2,
            1671.3,
            1671.5,
            1671.5,
            1671.6,
            1671.6,
            1671.6,
            1671.6,
            1671.6,
            1671.7,
            1671.7,
            1671.8,
            1672.3,
            1672.4,
            1672.4,
            1672.9,
            1672.9,
            1673.5,
            1674.0,
            1674.6,
            1675.1,
            1676.2,
            1676.2,
            1677.2,
            1677.3,
            1677.8,
            1677.8,
            1679.3,
            1679.3,
            1680.9,
            1682.5,
            1682.5,
            1684.0,
            1685.1,
            1686.7,
            1688.3,
            1688.4,
            1688.4,
            1688.7,
            1690.3,
            1690.8,
            1692.9,
            1696.6,
            1700.3,
            1702.3,
            1702.9,
            1703.9,
            1704.9,
            1706.0,
            1707.0,
            1709.6,
            1710.7,
            1710.7,
            1711.2,
            1712.3,
            1715.9,
            1718.5,
            1720.1,
            1721.1,
            1721.6,
            1722.6,
            1723.1,
            1723.5,
            1723.6,
            1723.6,
            1723.6,
            1723.9,
            1723.9,
            1723.9,
            1724.0,
            1724.0,
            1724.0,
            1724.1,
            1724.1,
            1724.1,
            1724.1,
            1724.4,
            1724.4,
            1724.8,
            1724.8,
            1724.8,
            1724.9,
            1724.9,
            1725.0,
            1725.3,
            1725.8,
            1726.3,
            1727.9,
            1728.4,
            1729.5,
            1729.5,
            1730.6,
            1730.6,
            1731.1,
            1731.7,
            1732.2,
            1734.3,
            1735.6,
            1735.8,
            1736.3,
            1739.5,
            1743.1,
            1744.1,
            1745.2,
            1746.2,
            1746.7,
            1747.2,
            1747.7,
            1748.2,
            1748.2,
            1749.2,
            1749.2,
            1750.2,
            1750.2,
            1751.3,
            1752.8,
            1752.8,
            1753.9,
            1754.4,
            1754.5,
            1755.0,
            1755.0,
            1755.5,
            1756.1,
            1757.1,
            1757.2,
            1757.2,
            1758.2,
            1759.3,
            1759.3,
            1760.4,
            1762.5,
            1763.6,
            1766.2,
            1769.3,
            1773.0,
            1778.2,
            1785.0,
            1789.7,
            1793.4,
            1796.5,
            1798.6,
            1799.6,
            1799.6,
            1800.1,
            1801.1,
            1801.3,
            1801.4,
            1801.5,
            1801.8,
            1801.9,
            1801.9,
            1802.0,
            1802.0,
            1802.1,
            1802.1,
            1802.1,
            1802.3,
            1802.5,
            1802.8,
            1802.8,
            1802.8,
            1802.8,
            1802.9,
            1802.9,
            1802.9,
            1803.0,
            1804.2,
            1804.2,
            1804.2,
            1804.2,
            1804.6,
            1804.6,
            1804.7,
            1804.7,
            1805.2,
            1805.7,
            1806.8,
            1806.8,
            1806.8,
            1806.8,
            1806.8,
            1806.9,
            1806.9,
            1807.4,
            1808.5,
            1808.5,
            1808.5,
            1808.5,
            1809.6,
            1810.1,
            1810.6,
            1810.7,
            1812.0,
            1812.1,
            1812.1,
