{
  "bib": {
    "title": "Total Cross Sections And Reaction Rates For 19F(Alpha,N)22Na And 22Ne(P,N)22Na And Their Inverses",
    "authors": [
      {
        "name": "P.R.Wrean"
      },
      {
        "name": "R.W.Kavanagh"
      }
    ],
    "institutes": [
      {
        "x4_code": "(1USACAL)",
        "free_txt": []
      }
    ],
    "references": {
      "0": [
        {
          "x4_code": "(J,PR/C,62,055805,200011)",
          "free_txt": [],
          "publication_year": "2000"
        }
      ]
    },
    "facility": {
      "0": [
        {
          "x4_code": "(ACCEL,1USACAL)",
          "free_txt": [
            " 3-MV Pelletron tandem accelerator."
          ],
          "facility_type": "(ACCEL)",
          "insitute": "(1USACAL)"
        }
      ]
    },
    "history": [
      {
        "x4_code": "(20041008C)",
        "free_txt": [
          " VM"
        ]
      }
    ]
  },
  "C1049-001": {
    "extra_information": {
      "detector": {
        "0": [
          {
            "x4_code": "(PROPC)",
            "free_txt": [
              " 3He-filled proportional counters embedded in",
              " a polyethylene moderator, and surrounded by cadmium",
              " shielding, which is in turn surrounded by",
              " polyethylene and paraffin."
            ]
          }
        ]
      },
      "facility": {
        "0": [
          {
            "x4_code": "(ACCEL,1USACAL)",
            "free_txt": [
              " 3-MV Pelletron tandem accelerator."
            ]
          }
        ]
      },
      "method": {
        "0": [
          {
            "x4_code": "(BCINT)",
            "free_txt": []
          }
        ]
      },
      "status": {
        "0": [
          {
            "x4_code": null,
            "free_txt": [
              "Data received by email from P.Wrean, 2004/9/24.",
              "Approval received from P. Wrean, 2005/1/9."
            ]
          }
        ]
      }
    }
  },
  "C1049-002": {
    "reaction": {
      "0": {
        "x4_code": "(9-F-19(A,N)11-NA-22,,SIG)",
        "0": {
          "code": [
            "9-F-19",
            [
              "A,N"
            ],
            "11-NA-22,,SIG"
          ],
          "type": null,
          "target": "9-F-19",
          "process": "A,N",
          "sf49": "11-NA-22,,SIG",
          "sf4": "11-NA-22",
          "sf5": null,
          "sf6": "SIG",
          "sf7": null,
          "sf8": null,
          "sf9": null
        },
        "type": null,
        "free_text": ""
      }
    },
    "extra_information": {
      "correction": {
        "0": [
          {
            "x4_code": null,
            "free_txt": [
              "Corrected for:",
              ". target impurities of 11B, 13C, and 18O.",
              ". deadtime,",
              ". background,",
              ". leakage current."
            ]
          }
        ]
      },
      "err-analys": {
        "0": [
          {
            "x4_code": "(ERR-S)",
            "free_txt": [
              " Statistical uncertainty given.",
              "Additional systematic uncertainty of <0.01 mb below",
              " 2.5 MeV.",
              "Overall normalization uncertainty is 8%."
            ]
          }
        ]
      },
      "inc-source": {
        "0": [
          {
            "x4_code": null,
            "free_txt": [
              "4He+ beam."
            ]
          }
        ]
      },
      "sample": {
        "0": [
          {
            "x4_code": null,
            "free_txt": [
              "201-microg crystal of optical-grade CaF2, evaporated",
              " onto Cu backing. Initial target thickness was 4.9E+16",
              " 19F atoms/cm2. Final thickness was 3.9E+16 atoms/cm2,",
              " due to deterioration under bombardment."
            ]
          }
        ]
      }
    },
    "common": null,
    "data": {
      "heads": [
        "EN",
        "DATA",
        "ERR-S"
      ],
      "units": [
        "MEV",
        "MB",
        "MB"
      ],
      "data": [
        [
          2.2841,
          2.2872,
          2.2904,
          2.2935,
          2.2967,
          2.2998,
          2.3103,
          2.3209,
          2.3314,
          2.342,
          2.3489,
          2.3521,
          2.3553,
          2.3585,
          2.3601,
          2.3617,
          2.3633,
          2.3641,
          2.3649,
          2.3657,
          2.3665,
          2.3673,
          2.3681,
          2.3689,
          2.3697,
          2.3705,
          2.3713,
          2.3729,
          2.3761,
          2.3793,
          2.3825,
          2.3857,
          2.3889,
          2.3921,
          2.3929,
          2.3937,
          2.3945,
          2.3953,
          2.3961,
          2.3969,
          2.3978,
          2.3986,
          2.3994,
          2.4002,
          2.401,
          2.4018,
          2.4034,
          2.405,
          2.4066,
          2.4098,
          2.4098,
          2.4131,
          2.4179,
          2.4179,
          2.4227,
          2.4276,
          2.4325,
          2.4357,
          2.4389,
          2.4398,
          2.4406,
          2.4414,
          2.4422,
          2.4433,
          2.4444,
          2.4452,
          2.446,
          2.4468,
          2.4476,
          2.4487,
          2.4498,
          2.4509,
          2.4525,
          2.4541,
          2.4557,
          2.4574,
          2.459,
          2.4606,
          2.4614,
          2.4623,
          2.4631,
          2.4639,
          2.4647,
          2.4655,
          2.4663,
          2.4672,
          2.468,
          2.4688,
          2.4696,
          2.4704,
          2.4712,
          2.4721,
          2.4729,
          2.4737,
          2.4745,
          2.4753,
          2.4761,
          2.477,
          2.478,
          2.4791,
          2.4791,
          2.4802,
          2.4813,
          2.4824,
          2.4824,
          2.483,
          2.4846,
          2.4857,
          2.4879,
          2.489,
          2.4922,
          2.4939,
          2.4955,
          2.4972,
          2.4988,
          2.5021,
          2.5054,
          2.5087,
          2.5103,
          2.512,
          2.5136,
          2.5153,
          2.5161,
          2.5169,
          2.5177,
          2.5186,
          2.5194,
          2.5202,
          2.521,
          2.5219,
          2.5235,
          2.5246,
          2.5262,
          2.5279,
          2.5296,
          2.5329,
          2.5329,
          2.5329,
          2.5362,
          2.5395,
          2.5428,
          2.5461,
          2.5494,
          2.5527,
          2.5561,
          2.5594,
          2.5627,
          2.566,
          2.5694,
          2.5727,
          2.576,
          2.5794,
          2.5827,
          2.586,
          2.5894,
          2.5927,
          2.5961,
          2.5994,
          2.6028,
          2.6061,
          2.6095,
          2.6129,
          2.6162,
          2.6196,
          2.6229,
          2.6263,
          2.6297,
          2.6313,
          2.633,
          2.6347,
          2.6356,
          2.6364,
          2.6381,
          2.6398,
          2.6415,
          2.6432,
          2.6449,
          2.6465,
          2.6482,
          2.6491,
          2.6499,
          2.6508,
          2.6516,
          2.6525,
          2.6533,
          2.6541,
          2.6541,
          2.655,
          2.655,
          2.6567,
          2.6567,
          2.6584,
          2.6601,
          2.6635,
          2.6669,
          2.6703,
          2.6736,
          2.677,
          2.6804,
          2.6804,
          2.6839,
          2.6873,
          2.6907,
          2.6941,
          2.6975,
          2.7009,
          2.7043,
          2.7077,
          2.7094,
          2.7103,
          2.7112,
          2.712,
          2.7129,
          2.7137,
          2.7146,
          2.7154,
          2.7163,
          2.718,
          2.7197,
          2.7214,
          2.7231,
          2.7248,
          2.7266,
          2.7283,
          2.7291,
          2.73,
          2.7309,
          2.7317,
          2.7334,
          2.7352,
          2.7386,
          2.742,
          2.7455,
          2.7489,
          2.7524,
          2.7558,
          2.7558,
          2.7593,
          2.7627,
          2.7662,
          2.7696,
          2.7731,
          2.7748,
          2.7765,
          2.7783,
          2.78,
          2.7817,
          2.7826,
          2.7835,
          2.7835,
          2.7843,
          2.7852,
          2.7869,
          2.7904,
          2.7939,
          2.7974,
          2.8008,
          2.8043,
          2.8078,
          2.8095,
          2.8104,
          2.8113,
          2.8121,
          2.813,
          2.8139,
          2.8148,
          2.8182,
          2.82,
          2.82,
          2.82,
          2.8217,
          2.8217,
          2.8235,
          2.8252,
          2.827,
          2.8287,
          2.8305,
          2.8322,
          2.834,
          2.8357,
          2.8375,
          2.8392,
          2.841,
          2.8427,
          2.8445,
          2.8453,
          2.8462,
          2.8471,
          2.848,
          2.848,
          2.8497,
          2.8515,
          2.8524,
          2.8532,
          2.8541,
          2.855,
          2.8567,
          2.8585,
          2.8594,
          2.8603,
          2.8611,
          2.862,
          2.8638,
          2.8655,
          2.8673,
          2.8673,
          2.8691,
          2.8708,
          2.8726,
          2.8743,
          2.8779,
          2.8796,
          2.8796,
          2.8814,
          2.8823,
          2.8827,
          2.8832,
          2.884,
          2.8849,
          2.8854,
          2.8867,
          2.8885,
          2.8902,
          2.8926,
          2.8949,
          2.8961,
          2.8973,
          2.8985,
          2.8996,
          2.9008,
          2.9032,
          2.9044,
          2.9055,
          2.9067,
          2.9091,
          2.9109,
          2.9114,
          2.9138,
          2.9162,
          2.9197,
          2.9215,
          2.9256,
          2.9316,
          2.9316,
          2.9375,
          2.9434,
          2.9494,
          2.9553,
          2.9613,
          2.9643,
          2.9672,
          2.9672,
          2.9732,
          2.9732,
          2.9792,
          2.9792,
          2.9852,
          2.9912,
          2.9971,
          2.9971,
          3.0032,
          3.0092,
          3.0122,
          3.0137,
          3.0152,
          3.0167,
          3.0182,
          3.0197,
          3.0212,
          3.0227,
          3.0242,
          3.0257,
          3.0272,
          3.0302,
          3.0332,
          3.0347,
          3.0347,
          3.0362,
          3.0393,
          3.0453,
          3.0513,
          3.0574,
          3.0635,
          3.0695,
          3.0756,
          3.0786,
          3.0817,
          3.0877,
          3.0938,
          3.0938,
          3.0999
        ],
        [
          0.0075086,
          0.0034569,
          6.0403e-05,
          0.0081446,
          0.0044838,
          0.0014222,
          0.00098985,
          0.0040905,
          0.00047517,
          0.00070044,
          0.00098614,
          0.0022932,
          0.0066755,
          0.002824,
          0.0071071,
          0.00029094,
          0.0020478,
          0.036363,
          0.079662,
          0.082884,
          0.076527,
          0.045832,
          0.021898,
          0.016548,
          0.016306,
          0.010903,
          0.01111,
          0.013475,
          0.013943,
          0.01328,
          0.017624,
          0.018822,
          0.013253,
          0.022562,
          0.015265,
          0.020389,
          0.051323,
          0.10962,
          0.16652,
          0.1766,
          0.1416,
          0.10009,
          0.068783,
          0.047878,
          0.036417,
          0.028255,
          0.029214,
          0.033961,
          0.027805,
          0.027734,
          0.02945,
          0.033657,
          0.038482,
          0.040185,
          0.030394,
          0.031434,
          0.032655,
          0.031464,
          0.031897,
          0.044564,
          0.051035,
          0.060815,
          0.10131,
          0.1746,
          0.19929,
          0.19533,
          0.14612,
          0.11095,
          0.087051,
          0.051626,
          0.048437,
          0.042704,
          0.040959,
          0.042376,
          0.048628,
          0.05067,
          0.049346,
          0.038265,
          0.033027,
          0.047506,
          0.047979,
          0.045576,
          0.053033,
          0.065108,
          0.067563,
          0.085088,
          0.087457,
          0.1165,
          0.14832,
          0.19597,
          0.20055,
          0.19297,
          0.17172,
          0.1515,
          0.14644,
          0.13202,
          0.12065,
          0.11894,
          0.12607,
          0.13429,
          0.13912,
          0.16321,
          0.19807,
          0.22342,
          0.22549,
          0.23336,
          0.34492,
          0.41601,
          0.81823,
          1.1437,
          1.9955,
          2.4104,
          2.2109,
          1.8254,
          1.4159,
          0.87292,
          0.6051,
          0.45764,
          0.42213,
          0.40509,
          0.37964,
          0.37058,
          0.36312,
          0.32844,
          0.32496,
          0.32942,
          0.31262,
          0.29746,
          0.29527,
          0.29285,
          0.26988,
          0.27993,
          0.26987,
          0.26676,
          0.26097,
          0.26507,
          0.28014,
          0.28729,
          0.28752,
          0.27665,
          0.2699,
          0.27588,
          0.27183,
          0.31638,
          0.35479,
          0.37048,
          0.40487,
          0.4988,
          0.54779,
          0.58431,
          0.64544,
          0.73856,
          0.85102,
          1.0393,
          1.2934,
          1.657,
          2.1426,
          2.61,
          2.8979,
          2.834,
          2.5166,
          2.0389,
          1.6266,
          1.1925,
          0.94211,
          0.77912,
          0.69309,
          0.73802,
          0.77162,
          0.8764,
          0.9022,
          0.90017,
          0.79103,
          0.6862,
          0.54427,
          0.47736,
          0.45718,
          0.42156,
          0.47139,
          0.53635,
          0.62351,
          0.63279,
          0.59437,
          0.53275,
          0.4353,
          0.40892,
          0.42151,
          0.3226,
          0.36949,
          0.30411,
          0.31394,
          0.28267,
          0.2591,
          0.23559,
          0.22777,
          0.23995,
          0.25245,
          0.24077,
          0.22465,
          0.23032,
          0.22346,
          0.22732,
          0.23631,
          0.26871,
          0.28783,
          0.35676,
          0.44628,
          0.52729,
          0.64481,
          0.66265,
          0.71929,
          0.69863,
          0.74789,
          0.78432,
          0.8275,
          0.86671,
          0.92107,
          1.139,
          1.4467,
          2.0787,
          3.0189,
          4.6906,
          6.8711,
          9.1006,
          10.939,
          11.679,
          11.499,
          9.9988,
          7.8795,
          6.3042,
          4.3111,
          2.7062,
          1.5735,
          1.0325,
          0.80395,
          0.64745,
          0.7022,
          0.5886,
          0.51709,
          0.46339,
          0.491,
          0.62612,
          0.70562,
          0.78405,
          0.86227,
          1.0367,
          1.1276,
          1.0031,
          0.81867,
          0.83906,
          0.68649,
          0.63833,
          0.59416,
          0.60222,
          0.61331,
          0.63054,
          0.66634,
          0.70097,
          0.69938,
          0.72535,
          0.85697,
          0.95076,
          0.90777,
          0.8569,
          0.78905,
          0.7811,
          0.80459,
          0.75434,
          0.80466,
          0.80878,
          0.93707,
          0.94387,
          1.2752,
          1.457,
          1.3145,
          1.2024,
          1.2573,
          1.374,
          1.6145,
          2.1144,
          2.7608,
          3.6702,
          5.4463,
          8.6886,
          13.788,
          15.963,
          15.163,
          13.49,
          9.2125,
          9.344,
          4.066,
          2.302,
          2.0431,
          2.0324,
          2.1575,
          2.6803,
          5.2442,
          14.658,
          17.082,
          16.375,
          13.506,
          9.8571,
          4.4405,
          2.334,
          1.5209,
          1.5437,
          1.318,
          1.2911,
          1.3955,
          1.6284,
          2.4163,
          3.1618,
          3.2101,
          4.5897,
          5.5342,
          6.0293,
          6.3697,
          5.8046,
          4.9272,
          4.6649,
          2.9765,
          1.8752,
          1.3292,
          0.90144,
          0.75025,
          0.72686,
          0.74851,
          0.77164,
          1.0229,
          1.4656,
          2.4514,
          2.7382,
          2.8136,
          2.634,
          2.0913,
          1.683,
          1.688,
          1.4022,
          1.2951,
          1.159,
          1.1141,
          1.0395,
          1.1272,
          1.1581,
          1.4383,
          1.8589,
          2.8789,
          3.7558,
          4.9105,
          5.2549,
          4.8109,
          4.8964,
          3.3408,
          3.4666,
          2.497,
          2.5581,
          1.5782,
          0.92366,
          0.74103,
          0.77734,
          0.71907,
          0.72303,
          0.90805,
          1.0837,
          1.5844,
          2.3553,
          3.5284,
          3.5352,
          2.4587,
          1.4849,
          1.1565,
          1.0232,
          0.99947,
          1.2296,
          1.7976,
          1.8004,
          1.8368,
          1.529,
          1.2133,
          0.91651,
          0.68445,
          0.5711,
          0.54835,
          0.74389,
          1.2393,
          1.3851,
          1.2614,
          0.94737,
          0.77071,
          0.79751,
          0.76726
        ],
        [
          0.0046102,
          0.0041899,
          0.0038389,
          0.0037168,
          0.0033917,
          0.0031323,
          0.0026971,
          0.0025428,
          0.0023979,
          0.0023071,
          0.0022766,
          0.0022977,
          0.0023901,
          0.0023538,
          0.0024596,
          0.0023845,
          0.0024684,
          0.0030159,
          0.0035796,
          0.003627,
          0.0035546,
          0.0031647,
          0.0028193,
          0.0027178,
          0.0026899,
          0.0025855,
          0.0025673,
          0.0025759,
          0.0025432,
          0.0025169,
          0.0025841,
          0.0026023,
          0.002505,
          0.0026467,
          0.0025308,
          0.0026111,
          0.0030548,
          0.0037501,
          0.0043227,
          0.0044152,
          0.0040798,
          0.0036416,
          0.0032729,
          0.0030013,
          0.0028407,
          0.0027206,
          0.0027306,
          0.0028025,
          0.0027004,
          0.0026851,
          0.0025488,
          0.0027516,
          0.0026399,
          0.0028097,
          0.0024893,
          0.0024755,
          0.0024622,
          0.0024154,
          0.0024097,
          0.0026136,
          0.0027047,
          0.0028425,
          0.0033597,
          0.0041417,
          0.0043709,
          0.0043318,
          0.0038489,
          0.0034629,
          0.0031739,
          0.0026906,
          0.0026458,
          0.0025598,
          0.0025436,
