{
  "bib": {
    "title": "J.A.Harvey Files (File 5)",
    "authors": [
      {
        "name": "R.W.Benjamin"
      },
      {
        "name": "C.E.Ahlfeld"
      },
      {
        "name": "J.A.Harvey"
      },
      {
        "name": "N.W.Hill"
      }
    ],
    "institutes": [
      {
        "x4_code": "(1USAORL)",
        "free_txt": []
      }
    ],
    "references": {
      "0": [
        {
          "x4_code": "(W,HARVEY,5,1998)",
          "free_txt": [
            " File 5 on Harvey's CD."
          ],
          "publication_year": "1998"
        }
      ]
    },
    "facility": {
      "0": [
        {
          "x4_code": "(LINAC,1USAORL)",
          "free_txt": [
            "  ORELA"
          ],
          "facility_type": "(LINAC)",
          "insitute": "(1USAORL)"
        }
      ]
    },
    "history": [
      {
        "x4_code": "(20160126C)",
        "free_txt": [
          " BP"
        ]
      }
    ]
  },
  "14247-001": {
    "extra_information": {
      "detector": {
        "0": [
          {
            "x4_code": "(GLASD)",
            "free_txt": [
              " 6Li glass."
            ]
          }
        ]
      },
      "facility": {
        "0": [
          {
            "x4_code": "(LINAC,1USAORL)",
            "free_txt": [
              "  ORELA"
            ]
          }
        ]
      },
      "method": {
        "0": [
          {
            "x4_code": "(TOF)",
            "free_txt": [
              " 17.711 m Flight Path."
            ]
          }
        ]
      }
    }
  },
  "14247-002": {
    "reaction": {
      "0": {
        "x4_code": "(96-CM-244(N,TOT),,SIG)",
        "0": {
          "code": [
            "96-CM-244",
            [
              "N,TOT"
            ],
            ",,SIG"
          ],
          "type": null,
          "target": "96-CM-244",
          "process": "N,TOT",
          "sf49": ",,SIG",
          "sf4": null,
          "sf5": null,
          "sf6": "SIG",
          "sf7": null,
          "sf8": null,
          "sf9": null
        },
        "type": null,
        "free_text": " Run: 24432."
      }
    },
    "extra_information": {
      "err-analys": {
        "0": [
          {
            "x4_code": "(DATA-ERR)",
            "free_txt": [
              " Absolute uncertainty."
            ]
          }
        ]
      },
      "sample": {
        "0": [
          {
            "x4_code": null,
            "free_txt": [
              "244CmO2 Thickness: 7413 b/atom, measured at RT."
            ]
          }
        ]
      },
      "status": {
        "0": [
          {
            "x4_code": "(TABLE)",
            "free_txt": [
              " J. Harvey's CD."
            ]
          }
        ]
      }
    },
    "common": null,
    "data": {
      "heads": [
        "EN",
        "DATA",
        "DATA-ERR"
      ],
      "units": [
        "EV",
        "B",
        "B"
      ],
      "data": [
        [
          0.76473,
          0.77117,
          0.77769,
          0.78429,
          0.79097,
          0.79774,
          0.8046,
          0.81155,
          0.81859,
          0.82572,
          0.83294,
          0.84026,
          0.84767,
          0.85519,
          0.8628,
          0.87052,
          0.87834,
          0.88626,
          0.8943,
          0.90244,
          0.9107,
          0.91907,
          0.92755,
          0.93615,
          0.94488,
          0.95372,
          0.95969,
          0.96269,
          0.96571,
          0.96874,
          0.97179,
          0.97485,
          0.97792,
          0.98102,
          0.98412,
          0.98724,
          0.99037,
          0.99352,
          0.99669,
          0.99987,
          1.0031,
          1.0063,
          1.0095,
          1.0127,
          1.016,
          1.0193,
          1.0226,
          1.0259,
          1.0292,
          1.0325,
          1.0359,
          1.0392,
          1.0426,
          1.046,
          1.0495,
          1.0529,
          1.0563,
          1.0598,
          1.0633,
          1.0668,
          1.0703,
          1.0739,
          1.0774,
          1.081,
          1.0846,
          1.0882,
          1.0918,
          1.0955,
          1.0991,
          1.1028,
          1.1065,
          1.1102,
          1.114,
          1.1177,
          1.1215,
          1.1253,
          1.1291,
          1.133,
          1.1368,
          1.1407,
          1.1446,
          1.1485,
          1.1524,
          1.1564,
          1.1604,
          1.1684,
          1.1805,
          1.1929,
          1.2055,
          1.2182,
          1.2312,
          1.2444,
          1.2577,
          1.2713,
          1.2852,
          1.2992,
          1.3135,
          1.328,
          1.3428,
          1.3578,
          1.373,
          1.3886,
          1.4043,
          1.4204,
          1.4367,
          1.4533,
          1.4702,
          1.4874,
          1.5049,
          1.5228,
          1.5409,
          1.5593,
          1.576,
          1.5861,
          1.5956,
          1.6053,
          1.6151,
          1.625,
          1.6349,
          1.645,
          1.6551,
          1.6653,
          1.6756,
          1.6861,
          1.6966,
          1.7072,
          1.7179,
          1.7287,
          1.7397,
          1.7507,
          1.7618,
          1.773,
          1.7844,
          1.7958,
          1.8074,
          1.8191,
          1.8309,
          1.8428,
          1.8548,
          1.8669,
          1.8792,
          1.8916,
          1.9041,
          1.9167,
          1.9295,
          1.9423,
          1.9554,
          1.9685,
          1.9818,
          1.9952,
          2.0087,
          2.0224,
          2.0362,
          2.0502,
          2.0643,
          2.0786,
          2.093,
          2.1075,
          2.1222,
          2.1371,
          2.1521,
          2.1673,
          2.1826,
          2.1981,
          2.2138,
          2.2296,
          2.2456,
          2.2618,
          2.2782,
          2.2947,
          2.3114,
          2.3283,
          2.3454,
          2.3627,
          2.3801,
          2.3978,
          2.4156,
          2.4337,
          2.452,
          2.4704,
          2.4891,
          2.508,
          2.5271,
          2.5464,
          2.566,
          2.5857,
          2.6057,
          2.626,
          2.6464,
          2.6671,
          2.6881,
          2.7093,
          2.7307,
          2.7524,
          2.7744,
          2.7966,
          2.8191,
          2.8419,
          2.865,
          2.8883,
          2.9119,
          2.9358,
          2.96,
          2.9845,
          3.0093,
          3.0345,
          3.0599,
          3.0857,
          3.1117,
          3.1382,
          3.1649,
          3.192,
          3.2195,
          3.2473,
          3.2754,
          3.304,
          3.3329,
          3.3621,
          3.3918,
          3.4219,
          3.4524,
          3.4832,
          3.5145,
          3.5463,
          3.5784,
          3.611,
          3.644,
          3.6775,
          3.7115,
          3.7459,
          3.7808,
          3.8162,
          3.8521,
          3.8886,
          3.9255,
          3.9629,
          4.0009,
          4.0395,
          4.0786,
          4.1183,
          4.1585,
          4.1994,
          4.2408,
          4.2829,
          4.3256,
          4.369,
          4.413,
          4.4576,
          4.503,
          4.549,
          4.5958,
          4.6433,
          4.6915,
          4.7405,
          4.7902,
          4.8407,
          4.8921,
          4.9442,
          4.9972,
          5.0511,
          5.1058,
          5.1614,
          5.218,
          5.2754,
          5.3338,
          5.3932,
          5.4536,
          5.5151,
          5.5775,
          5.6411,
          5.7057,
          5.7714,
          5.8383,
          5.9063,
          5.9756,
          6.0461,
          6.1178,
          6.1908,
          6.2651,
          6.3217,
          6.3599,
          6.3984,
          6.4373,
          6.4765,
          6.5161,
          6.556,
          6.5964,
          6.6371,
          6.6781,
          6.7196,
          6.7614,
          6.8037,
          6.8463,
          6.8893,
          6.9328,
          6.9766,
          7.0209,
          7.0656,
          7.1107,
          7.1563,
          7.2023,
          7.2487,
          7.2956,
          7.3429,
          7.3907,
          7.4229,
          7.439,
          7.4552,
          7.4715,
          7.4878,
          7.5041,
          7.5205,
          7.537,
          7.5535,
          7.5701,
          7.5867,
          7.6034,
          7.6201,
          7.6369,
          7.6538,
          7.6707,
          7.6876,
          7.7046,
          7.7217,
          7.7389,
          7.756,
          7.7733,
          7.7906,
          7.8079,
          7.8254,
          7.8428,
          7.8604,
          7.878,
          7.8956,
          7.9311,
          7.9848,
          8.039,
          8.0938,
          8.1491,
          8.2051,
          8.2615,
          8.3186,
          8.3763,
          8.4345,
          8.4934,
          8.5529,
          8.613,
          8.6738,
          8.7352,
          8.7973,
          8.86,
          8.9234,
          8.9875,
          9.0522,
          9.1177,
          9.1839,
          9.2508,
          9.3184,
          9.3868,
          9.456,
          9.5259,
          9.5966,
          9.668,
          9.7403,
          9.8134,
          9.8873,
          9.9621,
          10.038,
          10.114,
          10.192,
          10.27,
          10.349,
          10.429,
          10.51,
          10.592,
          10.675,
          10.759,
          10.844,
          10.929,
          11.016,
          11.104,
          11.193,
          11.283,
          11.375,
          11.467,
          11.56,
          11.655,
          11.751,
          11.847,
          11.946,
          12.045,
          12.146,
          12.247,
          12.35,
          12.455,
          12.561,
          12.668,
          12.776,
          12.886,
          12.998,
          13.11,
          13.225,
          13.34,
          13.458,
          13.576,
          13.697,
          13.819,
          13.942,
          14.068,
          14.195,
          14.323,
          14.454,
          14.586,
          14.72,
          14.856,
          14.994,
          15.134,
          15.276,
          15.42,
          15.565,
          15.713,
          15.863,
          16.015,
          16.17,
          16.326,
          16.485,
          16.579,
          16.606,
          16.633,
          16.66,
          16.687,
          16.714,
          16.741,
          16.769,
          16.796,
          16.824,
          16.851,
          16.879,
          16.906,
          16.934,
          16.962,
          16.99,
          17.018,
          17.046,
          17.074,
          17.102,
          17.13,
          17.159,
          17.187,
          17.215,
          17.244,
          17.272,
          17.373,
          17.548,
          17.725,
          17.904,
          18.087,
          18.272,
          18.46,
          18.652,
          18.846,
          19.043,
          19.243,
          19.447,
          19.653,
          19.863,
          20.077,
          20.293,
          20.514,
          20.738,
          20.965,
          21.197,
          21.432,
          21.671,
          21.915,
          22.162,
          22.414,
          22.669,
          22.93,
          23.195,
          23.464,
          23.738,
          24.017,
          24.301,
          24.59,
          24.884,
          25.175,
          25.361,
          25.514,
          25.669,
          25.825,
          25.983,
          26.142,
          26.302,
          26.464,
          26.628,
          26.793,
          26.959,
          27.127,
          27.297,
          27.468,
          27.641,
          27.816,
          27.992,
          28.17,
          28.35,
          28.531,
          28.714,
          28.899,
          29.086,
          29.274,
          29.464,
          29.656,
          29.85,
          30.046,
          30.244,
          30.444,
          30.646,
          30.85,
          31.056,
          31.264,
          31.474,
          31.686,
          31.9,
          32.117,
          32.335,
          32.556,
          32.779,
          33.005,
          33.233,
          33.463,
          33.696,
          33.931,
          34.168,
          34.308,
          34.348,
          34.388,
          34.428,
          34.469,
          34.509,
          34.549,
          34.59,
          34.63,
          34.671,
          34.712,
          34.753,
          34.793,
          34.834,
          34.875,
          34.916,
          34.958,
          34.999,
          35.04,
          35.081,
          35.123,
          35.164,
          35.206,
          35.248,
          35.289,
          35.331,
          35.373,
          35.415,
          35.457,
          35.499,
          35.541,
          35.584,
          35.626,
          35.668,
          35.817,
          36.075,
          36.336,
          36.599,
          36.865,
          37.134,
          37.406,
          37.555,
          37.577,
          37.6,
          37.623,
          37.646,
          37.669,
          37.692,
          37.716,
          37.739,
          37.762,
          37.785,
          37.808,
          37.831,
          37.854,
          37.878,
          37.901,
          37.924,
          37.947,
          37.971,
          37.994,
          38.017,
          38.041,
          38.064,
          38.087,
          38.111,
          38.134,
          38.158,
          38.181,
          38.205,
          38.228,
          38.252,
          38.276,
          38.299,
          38.323,
          38.346,
          38.37,
          38.394,
          38.417,
          38.441,
          38.465,
          38.489,
          38.513,
          38.536,
          38.56,
          38.584,
          38.608,
          38.632,
          38.788,
          39.078,
          39.372,
          39.669,
          39.969,
          40.273,
          40.581,
          40.891,
          41.206,
          41.524,
          41.846,
          42.171,
          42.5,
          42.834,
          43.171,
          43.512,
          43.857,
          44.206,
          44.56,
          44.887,
          45.083,
          45.264,
          45.447,
          45.631,
          45.815,
          46.001,
          46.188,
          46.377,
          46.566,
          46.757,
          46.948,
          47.141,
          47.335,
          47.531,
          47.727,
          47.925,
          48.124,
          48.324,
          48.525,
          48.728,
          48.932,
          49.137,
          49.344,
          49.552,
          49.761,
          49.971,
          50.183,
          50.396,
          50.611,
          50.827,
          51.044,
          51.263,
          51.483,
          51.704,
          51.927,
          52.152,
          52.377,
          52.605,
          52.834,
          53.064,
          53.296,
          53.529,
          53.764,
          54.0,
          54.238,
          54.478,
          54.719,
          54.962,
          55.206,
          55.452,
          55.7,
          55.949,
          56.2,
          56.453,
          56.707,
          56.963,
          57.221,
          57.481,
          57.742,
          58.005,
          58.27,
          58.537,
          58.806,
          59.076,
          59.349,
          59.623,
          59.899,
          60.177,
          60.457,
          60.739,
          61.023,
          61.309,
          61.597,
          61.887,
          62.179,
          62.473,
          62.769,
          63.068,
          63.23,
          63.255,
          63.28,
          63.305,
          63.33,
          63.356,
          63.381,
          63.406,
          63.431,
          63.456,
          63.481,
          63.507,
          63.532,
          63.557,
          63.582,
          63.608,
          63.633,
          63.658,
          63.683,
          63.709,
          63.734,
          63.759,
          63.785,
          63.81,
          63.836,
          63.861,
          63.886,
          63.912,
          63.937,
          63.963,
          63.988,
          64.014,
          64.039,
          64.065,
          64.09,
          64.116,
          64.142,
          64.167,
          64.193,
          64.218,
          64.244,
          64.27,
          64.295,
          64.321,
          64.347,
          64.372,
          64.398,
          64.424,
          64.45,
          64.476,
          64.501,
          64.527,
          64.553,
          64.579,
          64.605,
          64.631,
          64.656,
          64.682,
          64.708,
          64.812,
          64.994,
          65.178,
          65.361,
          65.546,
          65.731,
          65.918,
          66.105,
          66.293,
          66.4,
          66.427,
          66.454,
          66.481,
          66.508,
          66.535,
          66.562,
          66.589,
          66.616,
          66.643,
          66.671,
          66.698,
          66.725,
          66.752,
          66.779,
          66.806,
          66.834,
          66.861,
          66.888,
          66.915,
          66.943,
          66.97,
          66.997,
          67.024,
          67.052,
          67.079,
          67.107,
          67.134,
          67.161,
          67.189,
          67.216,
          67.244,
          67.271,
          67.299,
          67.326,
          67.354,
          67.533,
          67.866,
          68.201,
          68.539,
          68.88,
          69.223,
          69.568,
          69.917,
          70.267,
          70.621,
          70.977,
          71.336,
          71.697,
          72.061,
          72.428,
          72.798,
          73.171,
          73.547,
          73.925,
          74.307,
          74.691,
          75.078,
          75.469,
          75.862,
          76.259,
          76.658,
          77.061,
          77.467,
          77.876,
          78.289,
          78.704,
          79.123,
          79.546,
          79.972,
          80.401,
          80.833,
          81.27,
          81.709,
          82.153,
          82.6,
          83.05,
          83.504,
          83.962,
          84.424,
          84.695,
          84.773,
          84.851,
          84.929,
          85.007,
          85.085,
          85.163,
          85.241,
          85.32,
          85.398,
          85.477,
          85.556,
          85.635,
          85.714,
          85.793,
          85.872,
          85.951,
          86.031,
          86.11,
          86.19,
          86.27,
          86.35,
          86.43,
          86.51,
          86.59,
          86.67,
          86.751,
          86.831,
          86.912,
          86.993,
          87.277,
          87.766,
          88.26,
          88.757,
          89.259,
          89.765,
          90.276,
          90.791,
          91.31,
          91.834,
          92.362,
          92.895,
          93.433,
          93.975,
          94.522,
          95.074,
          95.63,
          96.192,
          96.758,
          97.33,
          97.906,
          98.488,
          99.075,
          99.667,
          100.26,
          100.87,
          101.48,
          102.09,
          102.71,
          103.33,
          103.96,
          104.6,
          105.24,
          105.89,
          106.55,
          107.21,
          107.87,
          108.55,
          109.23,
          109.91,
          110.6,
          111.3,
          112.01,
          112.72,
          113.44,
          114.16,
          114.9,
          115.64,
          116.38,
          117.14,
          117.9,
          118.67,
          119.44,
