{
  "entry": "10682",
  "last_updated": "2015-03-11",
  "number_of_revisions": "5",
  "histories": [
    {
      "x4_code": "(19800825C)",
      "free_txt": []
    },
    {
      "x4_code": "(20080925A)",
      "free_txt": [
        " formats updated; BIB updates."
      ]
    },
    {
      "x4_code": "(20141003A)",
      "free_txt": [
        " BP: Corrected data entry,",
        "           digitized Figs. 2-8."
      ]
    }
  ],
  "bib_record": {
    "title": "High-Resolution Fast-Neutron Gamma-Ray Production Cross Sections for Iron up to 2100-keV",
    "authors": [
      {
        "name": "W.E.Kinney"
      },
      {
        "name": "F.G.Perey"
      }
    ],
    "institutes": [
      {
        "x4_code": "(1USAORL)",
        "free_txt": []
      }
    ],
    "references": {
      "0": [
        {
          "x4_code": "(J,NSE,63,418,197708)",
          "free_txt": [],
          "publication_year": "1977"
        }
      ]
    },
    "facilities": {
      "0": [
        {
          "x4_code": "(LINAC,1USAORL)",
          "free_txt": [
            " ORELA."
          ],
          "facility_type": "(LINAC)",
          "institute": "(1USAORL)"
        }
      ]
    }
  },
  "data_tables": {
    "001": {
      "common": {
        "heads": [
          "E-NRM",
          "EN-RSL"
        ],
        "units": [
          "KEV",
          "NSEC/M"
        ],
        "data": [
          [
            477.0
          ],
          [
            0.1
          ]
        ]
      }
    },
    "002": {
      "reaction": {
        "0": {
          "x4_code": "(26-FE-0(N,INL)26-FE-0,PAR,DA,G)",
          "0": {
            "code": [
              "26-FE-0",
              [
                "N,INL"
              ],
              "26-FE-0,PAR,DA,G"
            ],
            "type": null,
            "target": "26-FE-0",
            "process": "N,INL",
            "sf49": "26-FE-0,PAR,DA,G",
            "sf4": "26-FE-0",
            "sf5": "PAR",
            "sf6": "DA",
            "sf7": "G",
            "sf8": null,
            "sf9": null
          },
          "type": null,
          "free_text": ""
        }
      },
      "common": {
        "heads": [
          "ANG",
          "E"
        ],
        "units": [
          "ADEG",
          "KEV"
        ],
        "data": [
          [
            125.0
          ],
          [
            846.0
          ]
        ]
      },
      "data": {
        "heads": [
          "EN",
          "DATA"
        ],
        "units": [
          "KEV",
          "MB/SR"
        ],
        "data": [
          [
            851.297,
            858.304,
            860.418,
            861.439,
            861.466,
            862.484,
            862.994,
            864.553,
            866.141,
            866.65,
            868.239,
            868.743,
            869.238,
            870.257,
            870.768,
            870.826,
            872.891,
            875.107,
            876.255,
            876.311,
            879.048,
            880.164,
            882.91,
            883.326,
            884.375,
            885.517,
            888.64,
            888.685,
            888.714,
            890.798,
            891.918,
            892.554,
            893.214,
            893.311,
            896.985,
            899.01,
            899.614,
            900.046,
            901.052,
            902.627,
            904.286,
            904.87,
            905.469,
            906.06,
            908.806,
            910.912,
            912.485,
            913.51,
            915.614,
            917.816,
            918.51,
            918.956,
            921.855,
            922.817,
            923.277,
            924.814,
            926.382,
            927.503,
            930.238,
            931.156,
            931.643,
            931.784,
            934.294,
            936.485,
            936.542,
            937.684,
            938.306,
            938.918,
            943.167,
            944.196,
            945.229,
            946.806,
            950.093,
            950.144,
            950.299,
            951.29,
            951.47,
            953.681,
            954.6,
            956.698,
            956.832,
            958.264,
            959.277,
            961.924,
            963.605,
            963.649,
            965.845,
            967.431,
            967.933,
            970.034,
            970.06,
            971.095,
            974.346,
            978.674,
            979.731,
            980.229,
            980.738,
            982.874,
            984.514,
            984.559,
            985.138,
            987.789,
            987.81,
            989.394,
            989.413,
            991.051,
            991.078,
            993.753,
            994.809,
            995.316,
            995.809,
            996.316,
            997.914,
            1000.045,
            1003.837,
            1004.399,
            1004.424,
            1004.987,
            1008.808,
            1009.906,
            1012.081,
            1014.752,
            1015.28,
            1016.912,
            1017.503,
            1018.015,
            1018.596,
            1020.777,
            1023.433,
            1025.018,
            1026.119,
            1027.218,
            1027.241,
            1028.802,
            1028.829,
            1029.852,
            1032.053,
            1032.571,
            1033.167,
            1035.897,
            1036.394,
            1039.052,
            1040.627,
            1041.671,
            1043.777,
            1044.884,
            1045.456,
            1047.64,
            1052.522,
            1054.094,
            1055.109,
            1057.291,
            1057.85,
            1058.954,
            1062.169,
            1062.684,
            1064.279,
            1064.792,
            1066.398,
            1069.127,
            1069.698,
            1070.266,
            1072.446,
            1074.511,
            1074.58,
            1075.075,
            1075.566,
            1076.07,
            1077.662,
            1080.931,
            1080.954,
            1083.684,
            1084.253,
            1085.364,
            1085.934,
            1089.755,
            1092.949,
            1093.986,
            1094.48,
            1094.967,
            1095.531,
            1098.188,
            1099.282,
            1101.457,
            1104.715,
            1105.809,
            1107.986,
            1112.812,
            1117.144,
            1118.203,
            1120.341,
            1120.857,
            1122.458,
            1124.047,
            1126.218,
            1129.441,
            1132.155,
            1132.18,
            1133.294,
            1137.046,
            1137.56,
            1142.411,
            1142.932,
            1145.065,
            1147.789,
            1148.896,
            1150.001,
            1151.104,
            1153.823,
            1157.092,
            1159.748,
            1162.407,
            1165.601,
            1166.163,
            1168.805,
            1172.552,
            1175.8,
            1177.974,
            1180.678,
            1184.433,
            1187.144,
            1189.863,
            1190.956,
            1192.052,
            1192.074,
            1192.638,
            1195.369,
            1196.961,
            1198.01,
            1199.065,
            1200.111,
            1203.368,
            1207.122,
            1210.862,
            1213.595,
            1214.159,
            1214.727,
            1218.531,
            1220.617,
            1220.65,
            1222.198,
            1224.316,
            1225.368,
            1228.046,
            1230.235,
            1232.41,
            1232.981,
            1237.265,
            1241.599,
            1243.774,
            1246.487,
            1247.037,
            1249.711,
            1252.394,
            1254.566,
            1255.688,
            1256.194,
            1256.215,
            1258.394,
            1258.952,
            1262.167,
            1264.303,
            1265.355,
            1265.877,
            1267.474,
            1271.257,
            1272.351,
            1273.447,
            1276.659,
            1279.873,
            1282.586,
            1283.68,
            1285.31,
            1285.866,
            1289.133,
            1289.632,
            1291.219,
            1292.274,
            1295.471,
            1298.184,
            1299.811,
            1301.945,
            1304.629,
            1306.266,
            1307.365,
            1307.388,
            1309.619,
            1312.833,
            1315.501,
            1316.557,
            1319.231,
            1323.015,
            1326.267,
            1327.369,
            1328.944,
            1329.995,
            1335.35,
            1338.076,
            1339.712,
            1340.816,
            1340.834,
            1344.632,
            1345.146,
            1345.627,
            1346.669,
            1346.727,
            1349.339,
            1353.131,
            1359.077,
            1363.969,
            1368.241,
            1372.004,
            1375.223,
            1376.289,
            1380.046,
            1384.876,
            1388.135,
            1389.23,
            1390.329,
            1390.888,
            1391.439,
            1393.07,
            1394.167,
            1396.336,
            1397.926,
            1402.807,
            1405.311,
            1407.219,
            1407.312,
            1409.901,
            1412.257,
            1414.031,
            1418.381,
            1420.312,
            1422.844,
            1423.497,
            1427.258,
            1430.867,
            1433.183,
            1433.906,
            1436.169,
            1440.552,
            1440.62,
            1444.388,
            1446.18,
            1446.74,
            1449.122,
            1452.775,
            1452.852,
            1456.627,
            1458.401,
            1462.011,
            1463.195,
            1466.303,
            1468.044,
            1469.83,
            1471.126,
            1471.795,
            1473.094,
            1473.785,
            1475.68,
            1478.222,
            1481.213,
            1482.989,
            1484.769,
            1487.786,
            1493.29,
            1496.398,
            1498.317,
            1499.639,
            1500.205,
            1501.544,
            1504.72,
            1506.503,
            1508.272,
            1508.819,
            1509.39,
            1509.94,
            1511.091,
            1513.481,
            1518.959,
            1520.868,
            1522.792,
            1522.853,
            1525.221,
            1528.959,
            1530.842,
            1533.969,
            1537.734,
            1540.236,
            1541.401,
            1543.791,
            1544.968,
            1548.635,
            1551.785,
            1551.839,
            1553.725,
            1557.347,
            1562.854,
            1564.658,
            1565.21,
            1567.625,
            1569.535,
            1570.213,
            1570.279,
            1571.566,
            1572.245,
            1574.789,
            1574.855,
            1578.461,
            1579.024,
            1581.437,
            1583.861,
            1585.745,
            1589.387,
            1594.9,
            1596.681,
            1600.956,
            1603.474,
            1604.745,
            1606.074,
            1606.631,
            1609.189,
            1610.972,
            1612.692,
            1612.748,
            1613.249,
            1615.046,
            1618.704,
            1619.977,
            1621.898,
            1623.824,
            1625.734,
            1629.467,
            1631.889,
            1633.061,
            1636.068,
            1637.964,
            1639.244,
            1640.517,
            1641.186,
            1641.252,
            1643.164,
            1646.305,
            1647.442,
            1647.989,
            1649.772,
            1651.544,
            1652.718,
            1653.909,
            1654.476,
            1655.051,
            1655.617,
            1657.415,
            1660.476,
            1660.515,
            1663.034,
            1663.715,
            1667.482,
            1669.345,
            1672.369,
            1674.175,
            1675.458,
            1677.346,
            1678.626,
            1680.543,
            1681.229,
            1682.507,
            1686.253,
            1688.678,
            1691.086,
            1693.498,
            1695.909,
            1697.095,
            1697.661,
            1700.699,
            1703.809,
            1704.459,
            1705.733,
            1707.003,
            1708.284,
            1709.564,
            1713.86,
            1716.383,
            1721.262,
            1723.165,
            1726.216,
            1728.11,
            1730.038,
            1731.784,
            1732.933,
            1733.506,
            1736.543,
            1738.359,
            1742.094,
            1743.393,
            1745.899,
            1747.572,
            1747.669,
            1748.759,
            1749.29,
            1753.65,
            1756.673,
            1758.583,
            1762.865,
            1767.199,
            1768.475,
            1770.373,
            1771.033,
            1771.094,
            1772.411,
            1774.815,
            1775.985,
            1776.555,
            1778.97,
            1780.765,
            1782.677,
            1785.834,
            1787.744,
            1790.269,
            1792.176,
            1794.673,
            1795.371,
            1799.16,
            1800.861,
            1800.913,
            1802.616,
            1803.278,
            1805.635,
            1809.828,
            1811.759,
            1818.522,
            1819.187,
            1821.737,
            1824.073,
            1825.247,
            1827.155,
            1829.079,
            1833.284,
            1836.434,
            1838.233,
            1841.39,
            1842.523,
            1844.926,
            1846.101,
            1849.737,
            1854.574,
            1858.328,
            1859.603,
            1860.294,
            1864.51,
            1865.662,
            1868.627,
            1870.985,
            1872.738,
            1877.579,
            1880.746,
            1882.035,
            1883.36,
            1884.081,
            1885.993,
            1887.926,
            1889.256,
            1891.177,
            1893.716,
            1898.563,
            1899.679,
            1899.74,
            1902.08,
            1905.089,
            1907.63,
            1913.123,
            1916.263,
            1919.912,
            1921.096,
            1923.637,
            1925.554,
            1927.967,
            1929.141,
            1929.71,
            1931.509,
            1934.509,
            1936.29,
            1937.465,
            1939.344,
            1943.023,
            1944.937,
            1944.998,
            1946.896,
            1948.195,
            1950.107,
            1953.14,
            1955.555,
            1957.284,
            1957.342,
            1959.086,
            1962.842,
            1965.268,
            1970.227,
            1972.677,
            1973.974,
            1977.714,
            1979.01,
            1982.141,
            1982.698,
            1985.726,
            1987.528,
            1991.162,
            1994.193,
            1997.355,
            2001.026,
            2004.111,
            2006.006,
            2007.174,
            2009.612,
            2012.044,
            2014.487,
            2016.31,
            2017.611,
            2020.113,
            2021.997,
            2023.88,
            2026.878,
            2026.913,
            2029.92,
            2031.745,
            2035.408,
            2037.823,
            2039.643,
            2041.464,
            2044.6,
            2047.155,
            2047.722,
            2050.291,
            2050.348,
            2053.484,
            2055.283,
            2057.679,
            2059.481,
            2062.509,
            2066.258,
            2069.258,
            2074.248,
            2077.346,
            2080.999,
            2087.748,
            2088.424,
            2092.169,
            2093.971,
            2099.554
          ],
          [
            1.269,
            1.269,
            1.754,
            2.721,
            2.199,
            3.501,
            4.362,
            6.812,
            8.541,
            10.77,
            13.33,
            17.49,
            24.48,
            38.48,
            47.93,
            30.69,
            61.67,
            38.73,
            22.51,
            14.69,
            10.57,
            7.906,
            5.331,
            13.69,
            17.16,
            10.5,
            24.65,
            17.39,
            13.87,
            24.17,
            17.5,
            8.273,
            3.263,
            1.542,
            3.284,
            9.058,
            5.472,
            12.51,
            21.66,
            29.93,
            21.67,
            15.28,
            9.663,
            6.474,
            4.337,
            6.391,
            9.002,
            13.52,
            20.05,
            14.06,
            4.255,
            8.716,
            1.813,
            4.423,
            8.119,
            15.0,
            21.96,
            15.69,
            11.51,
            39.53,
            59.01,
            19.93,
            83.11,
            62.95,
            40.83,
            24.83,
            13.1,
            7.467,
            12.12,
            17.63,
            24.99,
            33.86,
            22.4,
            15.2,
            4.601,
            8.95,
            2.246,
            1.466,
            4.972,
            7.765,
            2.78,
            11.51,
            18.94,
            27.55,
            16.75,
            11.89,
            8.724,
            11.15,
            14.72,
            22.55,
            18.46,
            25.66,
            22.55,
            19.82,
            23.29,
            31.97,
            40.34,
            46.81,
            39.32,
            27.74,
            20.34,
            28.65,
            24.38,
            31.36,
            27.03,
            23.0,
            18.58,
            21.7,
            25.67,
            33.03,
            46.82,
            59.85,
            69.44,
            84.3,
            72.19,
            60.64,
            49.95,
            41.42,
            28.66,
            24.54,
            21.15,
            25.35,
            27.75,
            24.55,
            16.44,
            20.22,
            14.64,
            12.06,
            16.34,
            20.89,
            17.43,
            14.83,
            12.38,
            19.08,
            15.52,
            23.62,
            16.77,
            19.71,
            12.7,
            9.687,
            13.38,
            17.78,
            24.56,
            31.8,
            46.56,
            37.38,
            28.87,
            23.17,
            18.25,
            25.87,
            42.0,
            34.37,
            29.44,
            23.94,
            27.78,
            33.5,
            39.38,
            48.11,
            52.66,
            40.41,
            31.61,
            25.21,
            20.91,
            42.01,
            24.73,
            34.83,
            50.34,
            66.04,
            79.65,
            60.72,
            50.67,
            38.63,
