{
  "entry": "F0947",
  "last_updated": "2012-07-02",
  "number_of_revisions": "2",
  "histories": [
    {
      "x4_code": "(20080617C)",
      "free_txt": []
    },
    {
      "x4_code": "(20120125A)",
      "free_txt": [
        " COMMON and REACTION records in Sub 002",
        "were changed."
      ]
    }
  ],
  "bib_record": {
    "title": "Gamma decay of 39K levels measured with the 38Ar(p,g)39K reaction.",
    "authors": [
      {
        "name": "S.Maripuu"
      }
    ],
    "institutes": [
      {
        "x4_code": "(2NEDUTR)",
        "free_txt": []
      }
    ],
    "references": [
      {
        "x4_code": "(J,NP/A,151,465,1970)",
        "free_txt": [],
        "publication_year": "1970",
        "pointer": "0"
      }
    ],
    "facilities": [
      {
        "x4_code": "(VDG)",
        "free_txt": [],
        "pointer": "0",
        "facility_type": "(VDG)",
        "institute": null
      }
    ]
  },
  "reactions": {
    "002": {
      "0": {
        "x4_code": "(18-AR-38(P,G)19-K-39,PAR,DA,,REL)",
        "children": [
          {
            "code": [
              "18-AR-38",
              [
                "P,G"
              ],
              "19-K-39,PAR,DA,,REL"
            ],
            "type": null,
            "target": "18-AR-38",
            "process": "P,G",
            "sf49": "19-K-39,PAR,DA,,REL",
            "sf4": "19-K-39",
            "sf5": "PAR",
            "sf6": "DA",
            "sf7": null,
            "sf8": "REL",
            "sf9": null
          }
        ],
        "type": null,
        "free_text": "Data are given in counts per 20 mu-Coulomb."
      }
    },
    "003": {
      "0": {
        "x4_code": "(18-AR-38(P,G)19-K-39,,DA/DE,,REL)",
        "children": [
          {
            "code": [
              "18-AR-38",
              [
                "P,G"
              ],
              "19-K-39,,DA/DE,,REL"
            ],
            "type": null,
            "target": "18-AR-38",
            "process": "P,G",
            "sf49": "19-K-39,,DA/DE,,REL",
            "sf4": "19-K-39",
            "sf5": null,
            "sf6": "DA/DE",
            "sf7": null,
            "sf8": "REL",
            "sf9": null
          }
        ],
        "type": null,
        "free_text": ""
      }
    }
  },
  "data_tables": {
    "001": {
      "common": {
        "heads": [
          "ANG"
        ],
        "units": [
          "ADEG"
        ],
        "data": [
          [
            55.0
          ]
        ]
      }
    },
    "002": {
      "common": {
        "heads": [
          "E-MIN",
          "E-MAX",
          "EN-ERR-DIG",
          "ERR-DIG"
        ],
        "units": [
          "MEV",
          "MEV",
          "KEV",
          "ARB-UNITS"
        ],
        "data": [
          [
            2.0
          ],
          [
            9.0
          ],
          [
            0.309
          ],
          [
            0.686
          ]
        ]
      },
      "data": {
        "heads": [
          "EN",
          "DATA"
        ],
        "units": [
          "KEV",
          "ARB-UNITS"
        ],
        "data": [
          [
            1260.0,
            1262.0,
            1263.0,
            1264.0,
            1265.0,
            1267.0,
            1268.0,
            1269.0,
            1271.0,
            1273.0,
            1274.0,
            1276.0,
            1277.0,
            1279.0,
            1279.0,
            1281.0,
            1283.0,
            1284.0,
            1284.0,
            1286.0,
            1288.0,
            1289.0,
            1290.0,
            1291.0,
            1293.0,
            1295.0,
            1295.0,
            1297.0,
            1299.0,
            1299.0,
            1301.0,
            1302.0,
            1304.0,
            1305.0,
            1306.0,
            1308.0,
            1309.0,
            1310.0,
            1312.0,
            1313.0,
            1315.0,
            1315.0,
            1317.0,
            1318.0,
            1319.0,
            1320.0,
            1321.0,
            1324.0,
            1325.0,
            1326.0,
            1328.0,
            1328.0,
            1330.0,
            1331.0,
            1332.0,
            1334.0,
            1335.0,
            1337.0,
            1337.0,
            1339.0,
            1340.0,
            1341.0,
            1343.0,
            1345.0,
            1346.0,
            1348.0,
            1348.0,
            1350.0,
            1351.0,
            1353.0,
            1353.0,
            1353.0,
            1355.0,
            1357.0,
            1358.0,
            1359.0,
            1360.0,
            1361.0,
            1363.0,
            1364.0,
            1365.0,
            1367.0,
            1368.0,
            1370.0,
            1371.0,
            1372.0,
            1374.0,
            1376.0,
            1376.0,
            1378.0,
            1379.0,
            1380.0,
            1381.0,
            1383.0,
            1384.0,
            1387.0,
            1388.0,
            1389.0,
            1390.0,
            1392.0,
            1393.0,
            1395.0,
            1397.0,
            1397.0,
            1400.0,
            1401.0,
            1402.0,
            1404.0,
            1405.0,
            1405.0,
            1407.0,
            1408.0,
            1410.0,
            1410.0,
            1412.0,
            1413.0,
            1414.0,
            1416.0,
            1417.0,
            1419.0,
            1420.0,
            1421.0,
            1422.0,
            1424.0,
            1425.0,
            1427.0,
            1428.0,
            1429.0,
            1430.0,
            1432.0,
            1433.0,
            1434.0,
            1436.0,
            1437.0,
            1437.0,
            1439.0,
            1440.0,
            1441.0,
            1442.0,
            1443.0,
            1445.0,
            1446.0,
            1447.0,
            1448.0,
            1450.0,
            1452.0,
            1454.0,
            1454.0,
            1455.0,
            1456.0,
            1458.0,
            1459.0,
            1461.0,
            1462.0,
            1464.0,
            1466.0,
            1466.0,
            1467.0,
            1469.0,
            1470.0,
            1471.0,
            1472.0,
            1473.0,
            1475.0,
            1476.0,
            1478.0,
            1479.0,
            1481.0,
            1482.0,
            1483.0,
            1484.0,
            1486.0,
            1487.0,
            1488.0,
            1489.0,
            1491.0,
            1492.0,
            1493.0,
            1495.0,
            1497.0,
            1498.0,
            1500.0,
            1501.0,
            1502.0,
            1504.0,
            1505.0,
            1506.0,
            1508.0,
            1510.0,
            1510.0,
            1512.0,
            1514.0,
            1514.0,
            1516.0,
            1517.0,
            1519.0,
            1520.0,
            1521.0,
            1522.0,
            1524.0,
            1526.0,
            1527.0,
            1528.0,
            1530.0,
            1532.0,
            1533.0,
            1534.0,
            1536.0,
            1537.0,
            1538.0,
            1539.0,
            1541.0,
            1542.0,
            1543.0,
            1545.0,
            1546.0,
            1547.0,
            1548.0,
            1550.0,
            1552.0,
            1553.0,
            1553.0,
            1555.0,
            1556.0,
            1558.0,
            1559.0,
            1561.0,
            1562.0,
            1562.0,
            1564.0,
            1565.0,
            1567.0,
            1568.0,
            1569.0,
            1570.0,
            1572.0,
            1573.0,
            1575.0,
            1576.0,
            1578.0,
            1579.0,
            1580.0,
            1582.0,
            1583.0,
            1584.0,
            1585.0,
            1587.0,
            1588.0,
            1590.0,
            1591.0,
            1592.0,
            1594.0,
            1594.0,
            1596.0,
            1597.0,
            1599.0,
            1600.0,
            1601.0,
            1603.0,
            1604.0,
            1605.0,
            1607.0,
            1608.0,
            1609.0,
            1611.0,
            1612.0,
            1613.0,
            1614.0,
            1616.0,
            1618.0,
            1619.0,
            1621.0,
            1622.0,
            1624.0,
            1625.0,
            1626.0,
            1628.0,
            1629.0,
            1631.0,
            1632.0,
            1633.0,
            1635.0,
            1635.0,
            1637.0,
            1638.0,
            1639.0,
            1641.0,
            1642.0,
            1645.0,
            1645.0,
            1647.0,
            1649.0,
            1650.0,
            1650.0,
            1652.0,
            1653.0,
            1655.0,
            1655.0,
            1658.0,
            1659.0,
            1660.0,
            1661.0,
            1663.0,
            1664.0,
            1665.0,
            1666.0,
            1667.0,
            1669.0,
            1670.0,
            1672.0,
            1673.0,
            1674.0,
            1675.0,
            1675.0,
            1677.0,
            1678.0,
            1680.0,
            1681.0,
            1682.0,
            1684.0,
            1686.0,
            1686.0,
            1688.0,
            1689.0,
            1690.0,
            1691.0,
            1693.0,
            1695.0,
            1696.0,
            1697.0,
            1699.0,
            1701.0,
            1701.0,
            1703.0,
            1704.0,
            1707.0,
            1708.0,
            1709.0,
            1710.0,
            1712.0,
            1713.0,
            1714.0,
            1716.0,
            1717.0,
            1718.0,
            1719.0,
            1721.0,
            1722.0,
            1723.0,
            1725.0,
            1726.0,
            1727.0,
            1729.0,
            1730.0,
            1731.0,
            1733.0,
            1734.0,
            1736.0,
            1737.0,
            1738.0,
            1740.0,
            1741.0,
            1742.0,
            1744.0,
            1745.0,
            1746.0,
            1747.0,
            1748.0,
            1749.0,
            1750.0,
            1751.0,
            1751.0,
            1753.0,
            1753.0,
            1753.0,
            1754.0,
            1755.0,
            1755.0,
            1756.0,
            1757.0,
            1757.0,
            1758.0,
            1759.0,
            1760.0,
            1760.0,
            1760.0,
            1761.0,
            1761.0,
            1761.0,
            1762.0,
            1764.0,
            1765.0,
            1767.0,
            1769.0,
            1769.0,
            1772.0,
            1773.0,
            1775.0,
            1777.0,
            1778.0,
            1780.0,
            1783.0,
            1785.0,
            1786.0,
            1787.0,
            1788.0,
            1790.0,
            1792.0,
            1793.0,
            1794.0,
            1796.0,
            1798.0,
            1800.0,
            1801.0,
            1803.0,
            1803.0,
            1804.0,
            1806.0,
            1807.0,
            1808.0,
            1810.0,
            1812.0,
            1813.0,
            1815.0,
            1817.0,
            1818.0,
            1821.0,
            1821.0,
            1823.0,
            1824.0,
            1826.0,
            1827.0,
            1829.0,
            1830.0,
            1832.0,
            1834.0,
            1836.0,
            1836.0,
            1838.0,
            1840.0,
            1840.0,
            1841.0,
            1843.0,
            1844.0,
            1846.0,
            1847.0,
            1849.0,
            1852.0,
            1853.0,
            1856.0,
            1856.0,
            1859.0,
            1860.0,
            1861.0,
            1861.0,
            1863.0,
            1865.0,
            1866.0,
            1868.0,
            1869.0,
            1870.0,
            1873.0,
            1874.0,
            1875.0,
            1876.0,
            1878.0,
            1880.0,
            1881.0,
            1883.0,
            1885.0,
            1886.0,
            1888.0,
            1889.0,
            1891.0,
            1892.0,
            1893.0,
            1895.0,
            1897.0,
            1898.0,
            1900.0,
            1900.0,
            1903.0,
            1905.0,
            1906.0,
            1908.0,
            1909.0,
            1911.0,
            1912.0,
            1913.0,
            1915.0,
            1917.0,
            1919.0,
            1919.0,
            1922.0,
            1923.0,
            1924.0,
            1926.0,
            1928.0,
            1930.0,
            1931.0,
            1932.0,
            1934.0,
            1936.0,
            1937.0,
            1939.0,
            1941.0,
            1942.0,
            1943.0,
            1945.0,
            1947.0,
            1948.0,
            1949.0,
            1951.0,
            1952.0,
            1953.0,
            1955.0,
            1956.0,
            1959.0,
            1960.0,
            1962.0,
            1963.0,
            1964.0,
            1966.0,
            1968.0,
            1969.0,
            1971.0,
            1972.0,
            1973.0,
            1974.0,
            1975.0,
            1977.0,
            1978.0,
            1980.0,
            1981.0,
            1983.0,
            1985.0,
            1986.0,
            1987.0,
            1989.0,
            1991.0,
            1992.0,
            1994.0,
            1995.0,
            1997.0,
            1999.0,
            2000.0,
            2002.0,
            2003.0,
            2004.0,
            2006.0,
            2008.0,
            2010.0,
            2011.0,
            2012.0,
            2013.0,
            2015.0,
            2017.0,
            2018.0,
            2020.0,
            2022.0,
            2023.0,
            2025.0,
            2026.0,
            2028.0,
            2029.0,
            2031.0,
            2032.0,
            2034.0,
            2036.0,
            2037.0,
            2039.0,
            2040.0,
            2041.0,
            2043.0,
            2045.0,
            2046.0,
            2048.0,
            2049.0,
            2051.0,
            2052.0,
            2054.0,
            2056.0,
            2058.0,
            2059.0,
            2060.0,
            2060.0,
            2062.0,
            2063.0,
            2065.0,
            2066.0,
            2069.0,
            2069.0,
            2070.0,
            2073.0,
            2074.0,
            2076.0,
            2077.0,
            2079.0,
            2080.0,
            2081.0,
            2082.0,
            2085.0,
            2086.0,
            2088.0,
            2090.0,
            2091.0,
            2091.0,
            2094.0,
            2095.0,
            2097.0,
            2099.0,
            2100.0,
            2102.0,
            2103.0,
            2105.0,
            2106.0,
            2108.0,
            2110.0,
            2111.0,
            2113.0,
            2114.0,
            2116.0,
            2117.0,
            2119.0,
            2121.0,
            2122.0,
            2123.0,
            2125.0,
            2126.0,
            2128.0,
            2129.0,
            2131.0,
            2132.0,
            2134.0,
            2136.0,
            2137.0,
            2139.0,
            2141.0,
            2141.0,
            2143.0,
            2145.0,
            2146.0,
            2148.0,
            2151.0,
            2152.0,
            2154.0,
            2155.0,
            2157.0,
            2159.0,
            2160.0,
            2162.0,
            2163.0,
            2165.0,
            2166.0,
            2168.0,
            2169.0,
            2172.0,
            2173.0,
            2174.0,
            2176.0,
            2177.0,
            2178.0,
            2181.0,
            2182.0,
            2183.0,
            2186.0,
            2186.0,
            2188.0,
            2189.0,
            2191.0,
            2192.0,
            2194.0,
            2195.0,
            2197.0,
            2199.0,
            2201.0,
            2201.0,
            2203.0,
            2205.0,
            2205.0,
            2207.0,
            2208.0,
            2209.0,
            2211.0,
            2214.0,
            2214.0,
            2216.0,
            2217.0,
            2218.0,
            2221.0,
            2222.0,
            2224.0,
            2225.0,
            2226.0,
            2228.0,
            2229.0,
            2232.0,
            2233.0,
            2234.0,
            2236.0,
            2237.0,
            2239.0,
            2240.0,
            2243.0,
            2243.0,
            2245.0,
            2247.0,
            2248.0,
            2250.0,
            2251.0,
            2254.0,
            2254.0,
            2256.0,
            2257.0,
            2259.0,
            2261.0,
            2263.0,
            2265.0,
            2267.0,
            2267.0,
            2269.0,
            2270.0,
            2271.0,
            2273.0,
            2274.0,
            2276.0,
            2278.0,
            2280.0,
            2281.0,
            2283.0,
            2284.0,
            2286.0,
            2287.0,
            2289.0,
            2290.0,
            2293.0,
            2294.0,
            2295.0,
            2297.0,
            2299.0,
            2300.0,
            2302.0,
            2303.0,
            2304.0,
            2307.0,
            2309.0,
            2310.0,
            2311.0,
            2312.0,
            2314.0,
            2316.0,
            2317.0,
            2318.0,
            2320.0,
            2322.0,
            2323.0,
            2324.0,
            2326.0,
            2328.0,
            2329.0,
            2331.0
          ],
          [
            81.992,
            87.765,
            74.693,
            90.624,
            70.295,
            83.318,
            73.153,
            70.226,
            75.985,
            67.249,
            81.73,
            73.008,
            68.63,
            80.204,
            70.039,
            85.963,
            96.079,
            130.86,
            204.81,
            225.09,
            204.75,
            180.07,
            142.35,
            114.78,
            114.74,
            106.02,
            94.415,
            98.717,
            74.037,
            63.872,
            75.439,
            59.474,
            73.947,
            72.47,
            69.549,
            86.916,
            91.252,
            59.329,
            59.294,
            66.517,
            67.933,
            49.081,
            54.854,
            38.882,
            57.72,
            50.448,
            59.128,
            56.18,
            61.959,
            50.331,
            51.746,
            61.897,
            64.77,
            48.791,
            71.979,
            64.694,
            73.367,
            74.79,
            68.982,
            89.256,
            89.229,
            87.758,
            70.329,
            100.75,
            105.08,
            139.85,
            115.19,
            100.65,
            104.98,
            103.5,
            125.25,
            138.29,
            133.91,
            130.97,
            144.02,
            155.6,
            128.02,
            122.19,
            116.37,
            123.6,
