{
  "entry": "21964",
  "last_updated": "2017-02-01",
  "number_of_revisions": "4",
  "histories": [
    {
      "x4_code": "(19850401U)",
      "free_txt": [
        "HH."
      ]
    },
    {
      "x4_code": "(19850723E)",
      "free_txt": []
    },
    {
      "x4_code": "(20161001A)",
      "free_txt": [
        " SD:Updated to new date formats,lower case.",
        "Ref.NEANDC(J)-83U,47 was added. Small corrections.",
        "MONITOR deleted, information moved to DETECTOR.",
        "BIB update. ERR-T -> ERR-S."
      ]
    }
  ],
  "bib_record": {
    "title": " Neutron total cross-section measurement of 232-Th in the off-resonance region below 300 eV",
    "authors": [
      {
        "name": "K.Kobayashi"
      },
      {
        "name": "I.Fujita"
      },
      {
        "name": "N.Yamamuro"
      }
    ],
    "institutes": [
      {
        "x4_code": "(2JPNKTO)",
        "free_txt": [
          "Kyoto University K.K., Y.F. experimental site"
        ]
      },
      {
        "x4_code": "(2JPNTIT)",
        "free_txt": [
          " Tokyo Institute of Technology N.Y."
        ]
      }
    ],
    "references": [
      {
        "x4_code": "(J,ANE,11,315,1984)",
        "free_txt": [
          " Annals of nuclear energy"
        ],
        "publication_year": "1984",
        "pointer": "0"
      },
      {
        "x4_code": "(P,NEANDC(J)-83U,47,1983)",
        "free_txt": [
          " short report."
        ],
        "publication_year": "1983",
        "pointer": "0"
      }
    ],
    "facilities": [
      {
        "x4_code": "(LINAC,2JPNKTO)",
        "free_txt": [
          "46 MeV electron linac KURRI"
        ],
        "pointer": "0",
        "facility_type": "(LINAC)",
        "institute": "(2JPNKTO)"
      }
    ]
  },
  "reactions": {
    "002": {
      "0": {
        "x4_code": "(90-TH-232(N,TOT),,SIG)",
        "children": [
          {
            "code": [
              "90-TH-232",
              [
                "N,TOT"
              ],
              ",,SIG"
            ],
            "type": null,
            "target": "90-TH-232",
            "process": "N,TOT",
            "sf49": ",,SIG",
            "sf4": null,
            "sf5": null,
            "sf6": "SIG",
            "sf7": null,
            "sf8": null,
            "sf9": null
          }
        ],
        "type": null,
        "free_text": ""
      }
    }
  },
  "data_tables": {
    "001": {
      "common": {
        "heads": [
          "ERR-1"
        ],
        "units": [
          "PER-CENT"
        ],
        "data": [
          [
            1.0
          ]
        ]
      }
    },
    "002": {
      "common": null,
      "data": {
        "heads": [
          "EN-MAX",
          "EN-MIN",
          "DATA",
          "ERR-S"
        ],
        "units": [
          "EV",
          "EV",
          "B",
          "B"
        ],
        "data": [
          [
            0.0040973,
            0.0043074,
            0.0045283,
            0.0047604,
            0.0050045,
            0.0052611,
            0.0055308,
            0.0058144,
            0.0061125,
            0.0064259,
            0.0067554,
            0.0071017,
            0.0074658,
            0.0078486,
            0.008251,
            0.0086741,
            0.0091188,
            0.0095863,
            0.010078,
            0.010595,
            0.011138,
            0.011709,
            0.012309,
            0.01294,
            0.013604,
            0.014301,
            0.015034,
            0.015805,
            0.016616,
            0.017467,
            0.018363,
            0.019304,
            0.020294,
            0.021335,
            0.022429,
            0.023579,
            0.024787,
            0.026058,
            0.027394,
            0.028799,
            0.030275,
            0.031828,
            0.03346,
            0.035175,
            0.036979,
            0.038874,
            0.040868,
            0.042963,
            0.045166,
            0.047481,
            0.049916,
            0.052475,
            0.055165,
            0.057994,
            0.060967,
            0.064093,
            0.067379,
            0.070834,
            0.074466,
            0.078284,
            0.082297,
            0.086517,
            0.090953,
            0.095616,
            0.10052,
            0.10567,
            0.11109,
            0.11679,
            0.12277,
            0.12907,
            0.13569,
            0.14264,
            0.14996,
            0.15764,
            0.16573,
            0.17422,
            0.18316,
            0.19255,
            0.20242,
            0.2128,
            0.22371,
            0.23518,
            0.24723,
            0.25991,
            0.27324,
            0.28725,
            0.30197,
            0.31746,
            0.33373,
            0.35084,
            0.36883,
            0.38774,
            0.40762,
            0.42852,
            0.45049,
            0.47359,
            0.49787,
            0.5234,
            0.55023,
            0.57844,
            0.6081,
            0.63928,
            0.67205,
            0.70651,
            0.74273,
            0.78082,
            0.82085,
            0.86293,
            0.90718,
            0.95369,
            1.0026,
            1.054,
            1.108,
            1.1648,
            1.2246,
            1.2873,
            1.3534,
            1.4227,
            1.4957,
            1.5724,
            1.653,
            1.7377,
            1.8268,
            1.9205,
            2.019,
            2.1225,
            2.2313,
            2.466,
            2.5924,
            2.5924,
            2.7253,
            2.865,
            3.0119,
            3.1664,
            3.3287,
            3.4994,
            3.6788,
            3.8674,
            4.0657,
            4.2741,
            4.4933,
            4.7237,
            4.9658,
            5.2205,
            5.4881,
            5.7695,
            6.0653,
            6.3763,
            6.7032,
            7.0469,
            7.4082,
            7.788,
            8.1873,
            8.6071,
            9.0484,
            9.5123,
            10.0,
            10.513,
            11.052,
            11.618,
            12.214,
            12.84,
            13.499,
            14.191,
            14.918,
            15.683,
            16.487,
            17.333,
            18.221,
            19.064,
            19.155,
            19.255,
            19.449,
            19.644,
            19.842,
            20.041,
            20.138,
            20.242,
            20.446,
            20.651,
            20.859,
            21.069,
            21.28,
            21.494,
            21.71,
            21.928,
            22.149,
            22.371,
            22.596,
            22.823,
            23.053,
            23.284,
            23.518,
            23.755,
            23.993,
            24.235,
            24.478,
            24.724,
            24.973,
            25.224,
            25.477,
            25.733,
            25.992,
            26.253,
            26.517,
            26.783,
            27.052,
            27.324,
            27.599,
            27.876,
            28.157,
            28.439,
            28.725,
            29.014,
            29.306,
            29.6,
            29.898,
            30.198,
            30.502,
            30.808,
            31.118,
            31.43,
            31.746,
            32.065,
            32.388,
            32.713,
            33.042,
            33.374,
            33.709,
            34.048,
            34.39,
            34.736,
            35.085,
            35.438,
            35.794,
            36.154,
            36.517,
            36.884,
            37.255,
            37.629,
            38.007,
            38.389,
            38.775,
            39.165,
            39.558,
            39.956,
            40.357,
            40.763,
            41.173,
            41.587,
            42.004,
            42.427,
            42.853,
            43.284,
            43.719,
            44.158,
            44.602,
            45.05,
            45.503,
            45.96,
            46.422,
            46.889,
            47.36,
            47.836,
            48.317,
            48.802,
            49.293,
            49.788,
            50.288,
            50.794,
            51.304,
            51.82,
            52.341,
            52.867,
            53.398,
            53.935,
            54.477,
            55.024,
            55.577,
            56.136,
            56.7,
            57.27,
            57.845,
            58.427,
            59.014,
            59.607,
            60.206,
            60.811,
            61.422,
            62.04,
            62.663,
            63.293,
            63.929,
            64.572,
            65.22,
            65.876,
            66.538,
            67.207,
            67.882,
            68.564,
            69.253,
            69.949,
            70.652,
            71.363,
            72.08,
            72.804,
            73.536,
            74.275,
            75.021,
            75.775,
            76.537,
            77.306,
            78.083,
            78.868,
            79.66,
            80.461,
            81.27,
            82.086,
            82.911,
            83.745,
            84.586,
            85.436,
            86.295,
            87.162,
            88.038,
            88.923,
            89.817,
            90.719,
            91.631,
            92.552,
            93.482,
            94.422,
            95.371,
            96.329,
            97.297,
            98.275,
            99.263,
            100.26,
            101.27,
            102.29,
            103.31,
            104.35,
            105.4,
            106.46,
            107.53,
            108.61,
            109.7,
            110.8,
            111.92,
            113.04,
            114.18,
            115.33,
            116.49,
            117.66,
            118.84,
            120.03,
            121.24,
            122.46,
            123.69,
            124.93,
            126.19,
            127.46,
            128.74,
            130.03,
            131.34,
            132.66,
            133.99,
            135.34,
            136.7,
            138.07,
            139.46,
            140.86,
            142.28,
            143.71,
            145.15,
            146.61,
            148.08,
            149.57,
            151.07,
            152.59,
            154.13,
            155.67,
            157.24,
            158.82,
            160.42,
            162.03,
            163.66,
            165.3,
            166.96,
            168.64,
            170.34,
            172.05,
            173.78,
            175.52,
            177.29,
            179.07,
            180.87,
            182.69,
            184.52,
            186.38,
            188.25,
            190.14,
            192.05,
            193.98,
            195.93,
            197.9,
            199.89,
            201.9,
            203.93,
            205.98,
            208.05,
            210.14,
            212.25,
            214.38,
            216.54,
            218.71,
            220.91,
            223.13,
            225.37,
            227.64,
            229.93,
            232.24,
            234.57,
            236.93,
            239.31,
            241.72,
            244.15,
            246.6,
            249.08,
            251.58,
            254.11,
            256.66,
            259.24,
            261.85,
            264.48,
            267.14,
            269.82,
            272.53,
            275.27,
            278.04,
            280.83,
            283.66,
            286.51,
            289.39,
            292.29,
            295.23,
            298.2,
            301.2,
            304.22,
            307.28,
            310.37,
            313.49,
            316.64,
            319.82,
            323.04,
            326.28,
            329.56,
            332.87,
            336.22,
            339.6,
            343.01,
            346.46,
            349.94,
            353.46,
            357.01,
            360.6,
            364.22,
            367.88,
            371.58,
            375.31,
            379.09,
            382.9,
            386.74,
            390.63,
            394.56,
            398.52,
            402.53,
            406.57,
            410.66,
            414.79,
            418.95,
            423.16,
            427.42,
            431.71,
            436.05,
            440.43,
            444.86,
            449.33,
            453.85,
            458.41,
            463.02,
            467.67,
            472.37,
            477.12,
            481.91,
            486.75,
            491.65,
            496.59,
            501.58,
            506.62,
            511.71,
            516.85,
            522.05,
            527.29,
            532.59,
            537.95,
            543.35,
            548.81,
            554.33,
            559.9,
            565.53,
            571.21,
            576.95,
            582.75,
            588.61,
            594.52,
            600.5,
            606.53,
            612.63,
            618.79,
            625.0,
            631.29,
            637.63,
            644.04,
            650.51,
            657.05,
            663.65,
            670.32,
            677.06,
            683.86,
            690.74,
            697.68,
            704.69,
            711.77,
            718.93,
            726.15,
            733.45,
            740.82,
            748.27,
            755.79,
            763.38,
            771.05,
            778.8,
            786.63,
            794.53,
            802.52,
            810.59,
            818.73,
            826.96,
            835.27,
            843.67,
            852.14,
            860.71,
            869.36,
            878.1,
            886.92,
            895.83,
            904.84,
            913.93,
            923.12,
            932.39,
            941.77,
            951.23,
            960.79,
            970.45,
            980.2,
            990.05,
            1000.0
          ],
          [
            0.0038975,
            0.0040973,
            0.0043074,
            0.0045283,
            0.0047604,
            0.0050045,
            0.0052611,
            0.0055308,
            0.0058144,
            0.0061125,
            0.0064259,
            0.0067554,
            0.0071017,
            0.0074658,
            0.0078486,
            0.008251,
            0.0086741,
            0.0091188,
            0.0095863,
            0.010078,
            0.010595,
            0.011138,
            0.011709,
            0.012309,
            0.01294,
            0.013604,
            0.014301,
            0.015034,
            0.015805,
            0.016616,
            0.017467,
            0.018363,
            0.019304,
            0.020294,
            0.021335,
            0.022429,
            0.023579,
            0.024787,
            0.026058,
            0.027394,
            0.028799,
            0.030275,
            0.031828,
            0.03346,
            0.035175,
            0.036979,
            0.038874,
            0.040868,
            0.042963,
            0.045166,
            0.047481,
            0.049916,
            0.052475,
            0.055165,
            0.057994,
            0.060967,
            0.064093,
            0.067379,
            0.070834,
            0.074466,
            0.078284,
            0.082297,
            0.086517,
            0.090953,
            0.095616,
            0.10052,
            0.10567,
            0.11109,
            0.11679,
            0.12277,
            0.12907,
            0.13569,
            0.14264,
            0.14996,
            0.15764,
            0.16573,
            0.17422,
            0.18316,
            0.19255,
            0.20242,
            0.2128,
            0.22371,
            0.23518,
            0.24723,
            0.25991,
            0.27324,
            0.28725,
            0.30197,
            0.31746,
            0.33373,
            0.35084,
            0.36883,
            0.38774,
            0.40762,
            0.42852,
            0.45049,
            0.47359,
            0.49787,
            0.5234,
            0.55023,
            0.57844,
            0.6081,
            0.63928,
            0.67205,
            0.70651,
            0.74273,
            0.78082,
            0.82085,
            0.86293,
            0.90718,
            0.95369,
            1.0026,
            1.054,
            1.108,
            1.1648,
            1.2246,
            1.2873,
            1.3534,
            1.4227,
            1.4957,
            1.5724,
            1.653,
            1.7377,
            1.8268,
            1.9205,
            2.019,
            2.1225,
            2.3457,
            2.466,
            2.466,
            2.5924,
            2.7253,
            2.865,
            3.012,
            3.1664,
            3.3287,
            3.4994,
            3.6788,
            3.8674,
            4.0656,
            4.2742,
            4.4933,
            4.7236,
            4.9659,
            5.2204,
            5.4881,
            5.7695,
            6.0653,
            6.3763,
            6.7032,
            7.0469,
            7.4082,
            7.788,
            8.1873,
            8.6071,
            9.0484,
            9.5123,
            10.0,
            10.513,
            11.051,
            11.618,
            12.214,
            12.841,
            13.499,
            14.19,
            14.918,
            15.683,
            16.488,
            17.332,
            18.874,
            18.221,
            19.063,
            19.255,
            19.449,
            19.645,
            19.842,
            19.156,
            20.041,
            20.243,
            20.446,
            20.651,
            20.859,
            21.068,
            21.28,
            21.494,
            21.71,
            21.929,
            22.148,
            22.371,
            22.596,
            22.824,
            23.052,
            23.284,
            23.519,
            23.754,
            23.994,
            24.234,
            24.478,
            24.725,
            24.973,
            25.224,
            25.477,
            25.733,
            25.992,
            26.253,
            26.517,
            26.783,
            27.052,
            27.324,
            27.599,
            27.877,
            28.156,
            28.439,
            28.725,
            29.014,
            29.305,
            29.601,
            29.898,
            30.199,
            30.501,
            30.808,
            31.117,
            31.43,
            31.746,
            32.066,
            32.388,
            32.713,
            33.042,
            33.374,
            33.709,
            34.048,
            34.39,
            34.736,
            35.085,
            35.438,
            35.794,
            36.154,
            36.517,
            36.884,
            37.255,
            37.629,
            38.007,
            38.389,
            38.775,
            39.164,
            39.558,
            39.955,
            40.357,
            40.763,
            41.173,
            41.586,
            42.005,
            42.427,
            42.853,
            43.284,
            43.719,
            44.158,
            44.602,
            45.05,
            45.503,
            45.96,
            46.422,
            46.889,
            47.36,
            47.836,
            48.316,
            48.803,
            49.293,
            49.788,
