{
  "entry": "21968",
  "last_updated": "2023-05-23",
  "number_of_revisions": "4",
  "histories": [
    {
      "x4_code": "(850909C)",
      "free_txt": [
        " BN."
      ]
    },
    {
      "x4_code": "(860106E)",
      "free_txt": []
    }
  ],
  "bib_record": {
    "title": "-MEASUREMENT OF THE LI-6(N,ALPHA)/B-10(N,ALPHA) RATIO WITH A XENON GAS SCINTILLATOR-",
    "authors": [
      {
        "name": "C.Bastian"
      },
      {
        "name": "H.Riemenschneider"
      }
    ],
    "institutes": [
      {
        "x4_code": "(2ZZZGEL)",
        "free_txt": []
      }
    ],
    "references": [
      {
        "x4_code": "(R,IAEA-335,118,8411)",
        "free_txt": [
          " IAEA-TECDOC-335.",
          " PROCEEDINGS OF AN ADVISORY GROUP MEETING ON",
          " NUCLEAR STANDARD REFERENCE DATA, HELD AT",
          " CBNM, GEEL, 12-16 NOVEMBER 1984."
        ],
        "publication_year": "1984",
        "doi": null,
        "pointer": "0"
      }
    ],
    "facilities": [
      {
        "x4_code": "(LINAC,2ZZZGEL)",
        "free_txt": [
          "  ELECTRON ACCELERATOR GELINA"
        ],
        "pointer": "0",
        "facility_type": "(LINAC)",
        "institute": "(2ZZZGEL)"
      }
    ]
  },
  "reactions": {
    "002": {
      "0": {
        "x4_code": "((3-LI-6(N,T)2-HE-4,,SIG)/(5-B-10(N,A)3-LI-7,,SIG))",
        "children": [
          {
            "code": [
              "3-LI-6",
              [
                "N,T"
              ],
              "2-HE-4,,SIG"
            ],
            "type": null,
            "target": "3-LI-6",
            "process": "N,T",
            "sf49": "2-HE-4,,SIG",
            "sf4": "2-HE-4",
            "sf5": null,
            "sf6": "SIG",
            "sf7": null,
            "sf8": null,
            "sf9": null
          },
          {
            "code": [
              "5-B-10",
              [
                "N,A"
              ],
              "3-LI-7,,SIG"
            ],
            "type": null,
            "target": "5-B-10",
            "process": "N,A",
            "sf49": "3-LI-7,,SIG",
            "sf4": "3-LI-7",
            "sf5": null,
            "sf6": "SIG",
            "sf7": null,
            "sf8": null,
            "sf9": null
          }
        ],
        "type": "/",
        "free_text": "",
        "pointer": "0"
      }
    }
  },
  "data_tables": {
    "001": {
      "common": null
    },
    "002": {
      "common": null,
      "data": {
        "heads": [
          "EN-MIN",
          "EN-MAX",
          "DATA",
          "DATA-ERR1",
          "DATA-ERR2",
          "ERR-T"
        ],
        "units": [
          "EV",
          "EV",
          "NO-DIM",
          "PER-CENT",
          "PER-CENT",
          "PER-CENT"
        ],
        "data": [
          [
            2.485,
            2.524,
            2.564,
            2.605,
            2.648,
            2.691,
            2.735,
            2.78,
            2.827,
            2.874,
            2.923,
            2.973,
            3.025,
            3.077,
            3.132,
            3.187,
            3.244,
            3.303,
            3.363,
            3.425,
            3.488,
            3.554,
            3.621,
            3.69,
            3.761,
            3.835,
            3.91,
            3.988,
            4.068,
            4.15,
            4.235,
            4.323,
            4.413,
            4.506,
            4.602,
            4.702,
            4.804,
            4.91,
            5.019,
            5.133,
            5.25,
            5.371,
            5.496,
            5.626,
            5.76,
            5.9,
            6.044,
            6.081,
            6.118,
            6.156,
            6.194,
            6.213,
            6.232,
            6.251,
            6.271,
            6.29,
            6.31,
            6.33,
            6.349,
            6.369,
            6.389,
            6.409,
            6.429,
            6.449,
            6.47,
            6.49,
            6.51,
            6.678,
            6.852,
            6.874,
            6.897,
            6.919,
            6.942,
            6.964,
            6.987,
            7.01,
            7.033,
            7.056,
            7.08,
            7.103,
            7.126,
            7.15,
            7.174,
            7.198,
            7.221,
            7.27,
            7.319,
            7.368,
            7.417,
            7.518,
            7.622,
            7.834,
            8.056,
            8.287,
            8.528,
            8.78,
            8.91,
            9.043,
            9.111,
            9.179,
            9.248,
            9.318,
            9.389,
            9.461,
            9.533,
            9.606,
            9.68,
            9.755,
            9.831,
            9.908,
            9.947,
            9.986,
            10.02,
            10.06,
            10.14,
            10.22,
            10.39,
            10.56,
            10.73,
            10.9,
            11.08,
            11.27,
            11.46,
            11.65,
            11.85,
            12.06,
            12.27,
            12.48,
            12.7,
            12.93,
            13.16,
            13.4,
            13.65,
            13.77,
            13.9,
            13.97,
            14.03,
            14.1,
            14.16,
            14.29,
            14.43,
            14.46,
            14.5,
            14.53,
            14.56,
            14.6,
            14.63,
            14.67,
            14.7,
            14.77,
            14.84,
            14.91,
            14.99,
            15.06,
            15.13,
            15.2,
            15.28,
            15.43,
            15.58,
            15.73,
            15.89,
            16.2,
            16.53,
            16.87,
            17.22,
            17.58,
            17.95,
            18.33,
            18.72,
            19.13,
            19.55,
            19.99,
            20.04,
            20.1,
            20.15,
            20.21,
            20.27,
            20.32,
            20.38,
            20.44,
            20.49,
            20.55,
            20.61,
            20.67,
            20.73,
            20.78,
            20.84,
            20.9,
            21.02,
            21.14,
            21.26,
            21.38,
            21.44,
            21.5,
            21.57,
            21.63,
            21.69,
            21.75,
            21.82,
            21.88,
            22.01,
            22.14,
            22.26,
            22.4,
            22.66,
            22.93,
            23.48,
            24.06,
            24.65,
            25.27,
            25.91,
            26.57,
            26.74,
            26.91,
            27.09,
            27.26,
            27.35,
            27.44,
            27.53,
            27.62,
            27.71,
            27.8,
            27.89,
            27.98,
            28.35,
            28.73,
            29.5,
            30.32,
            31.16,
            32.04,
            32.95,
            33.91,
            34.91,
            35.04,
            35.16,
            35.29,
            35.42,
            35.55,
            35.69,
            35.82,
            35.95,
            36.08,
            36.22,
            36.35,
            36.49,
            36.63,
            36.76,
            36.9,
            37.04,
            37.18,
            37.32,
            37.46,
            37.61,
            37.75,
            37.89,
            38.04,
            38.18,
            38.48,
            38.77,
            39.07,
            39.38,
            40.0,
            40.63,
            41.28,
            41.94,
            42.62,
            43.32,
            44.03,
            44.76,
            45.51,
            46.28,
            47.07,
            47.88,
            48.71,
            49.56,
            50.44,
            51.34,
            52.26,
            53.21,
            54.18,
            55.18,
            56.21,
            57.27,
            58.35,
            59.47,
            60.62,
            61.81,
            63.03,
            64.29,
            64.44,
            64.61,
            64.77,
            64.93,
            65.09,
            65.25,
            65.42,
            65.58,
            65.74,
            65.91,
            66.07,
            66.24,
            66.41,
            66.58,
            66.75,
            66.91,
            67.25,
            67.6,
            67.94,
            68.29,
            68.64,
            68.99,
            69.35,
            69.71,
            71.17,
            72.68,
            74.24,
            75.84,
            77.5,
            79.22,
            79.44,
            79.66,
            79.88,
            80.1,
            80.32,
            80.54,
            80.77,
            80.99,
            81.45,
            81.9,
            82.36,
            82.83,
            83.3,
            83.77,
            84.24,
            84.72,
            85.7,
            86.69,
            87.19,
            87.69,
            88.21,
            88.72,
            88.98,
            89.24,
            89.5,
            89.76,
            90.03,
            90.29,
            90.56,
            90.82,
            91.9,
            93.0,
            94.12,
            95.26,
            96.42,
            97.61,
            98.81,
            100.0,
            100.2,
            100.3,
            100.5,
            100.7,
            100.8,
            101.0,
            101.1,
            101.3,
            101.4,
            101.6,
            101.8,
            101.9,
            102.1,
            102.2,
            102.4,
            102.6,
            103.2,
            103.8,
            104.5,
            105.2,
            105.8,
            106.5,
            107.2,
            107.9,
            109.3,
            110.7,
            112.2,
            113.7,
            114.0,
            114.4,
            114.8,
            115.2,
            115.6,
            115.9,
            116.3,
            116.7,
            117.1,
            117.5,
            117.9,
            118.3,
            118.7,
            119.1,
            119.5,
            119.9,
            120.3,
            120.7,
            121.1,
            121.6,
            122.0,
            122.4,
            122.8,
            123.2,
            126.7,
            130.3,
            134.0,
            138.0,
            140.0,
            142.1,
            144.2,
            146.3,
            147.4,
            148.6,
            149.7,
            150.8,
            155.5,
            157.9,
            160.4,
            163.0,
            163.6,
            164.3,
            164.9,
            165.6,
            166.9,
            168.2,
            171.0,
            173.8,
            176.6,
            179.6,
            182.6,
            185.7,
            186.1,
            186.5,
            186.9,
            187.3,
            187.6,
            188.1,
            188.4,
            188.9,
            189.3,
            189.6,
            190.1,
            190.5,
            190.9,
            191.3,
            191.7,
            192.1,
            193.8,
            195.4,
            197.1,
            198.9,
            202.4,
            206.0,
            206.9,
            207.8,
            208.8,
            209.7,
            210.6,
            211.6,
            212.5,
            213.5,
            217.4,
            221.4,
            225.6,
            227.7,
            229.8,
            234.2,
            236.4,
            238.7,
            239.8,
            241.0,
            242.1,
            243.3,
            248.1,
            253.0,
            258.0,
            263.2,
            268.6,
            271.3,
            274.1,
            275.5,
            277.0,
            278.4,
            279.8,
            285.7,
            288.7,
            291.8,
            294.9,
            298.0,
            304.5,
            311.2,
            314.6,
            318.1,
            325.2,
            332.6,
            340.2,
            342.2,
            344.2,
            346.1,
            348.1,
            349.1,
            350.2,
            351.2,
            352.2,
            353.2,
            354.3,
            355.3,
            356.3,
            360.5,
            364.8,
            373.6,
            382.6,
            385.0,
            387.3,
            389.7,
            392.1,
            396.9,
            401.9,
            406.9,
            412.0,
            414.6,
            417.2,
            419.9,
            422.6,
            433.5,
            444.9,
            456.7,
            469.1,
            475.4,
            481.9,
            495.2,
            509.2,
            516.3,
            523.7,
            531.2,
            538.8,
            542.7,
            546.6,
            550.6,
            554.6,
            571.2,
            575.4,
            579.7,
            584.0,
            588.4,
            589.5,
            590.6,
            591.7,
            592.8,
            594.0,
            595.1,
            596.2,
            597.3,
            598.5,
            599.6,
            600.7,
            601.9,
            603.0,
            604.2,
            605.3,
            606.5,
            615.8,
            625.4,
            635.2,
            645.2,
            655.4,
            658.0,
            660.7,
            663.3,
            666.0,
            671.3,
            676.7,
            687.7,
            699.0,
            710.6,
            722.5,
            734.6,
            747.1,
            759.9,
            773.0,
            786.5,
            800.3,
            814.5,
            829.0,
            844.0,
            851.6,
            859.4,
            867.2,
            875.2,
            891.4,
            899.7,
            908.1,
            925.3,
            942.9,
            961.1,
            970.4,
            979.8,
            989.3,
            999.0,
            1009.0,
            1019.0,
            1039.0,
            1060.0,
            1082.0,
            1093.0,
            1104.0,
            1116.0,
            1127.0,
            1139.0,
            1151.0,
            1176.0,
            1201.0,
            1214.0,
            1227.0,
            1234.0,
            1241.0,
            1247.0,
            1254.0,
            1282.0,
            1311.0,
            1341.0,
            1372.0,
            1388.0,
            1404.0,
            1437.0,
            1471.0,
            1507.0,
            1544.0,
            1563.0,
            1582.0,
            1601.0,
            1621.0,
            1663.0,
            1705.0,
            1727.0,
            1750.0,
            1773.0,
            1796.0,
            1820.0,
            1844.0,
            1894.0,
            1946.0,
            1959.0,
            1973.0,
            1986.0,
            2000.0,
            2057.0,
            2116.0,
            2177.0,
            2241.0,
            2308.0,
            2343.0,
            2378.0,
            2415.0,
            2452.0,
            2490.0,
            2529.0,
            2548.0,
            2568.0,
            2609.0,
            2651.0,
            2694.0,
            2737.0,
            2782.0,
            2828.0,
            2875.0,
            2924.0,
            2973.0,
            3024.0,
            3076.0,
            3129.0,
            3184.0,
            3240.0,
            3298.0,
            3358.0,
            3419.0,
            3481.0,
            3546.0,
            3612.0,
            3680.0,
            3750.0,
            3822.0,
            3896.0,
            3972.0,
            4051.0,
            4132.0,
            4215.0,
            4301.0,
            4390.0,
            4481.0,
            4575.0,
            4673.0,
            4773.0,
            4877.0,
            4984.0,
            5094.0,
            5209.0,
            5327.0,
            5449.0,
            5576.0,
            5707.0,
            5842.0,
            5983.0,
            6129.0,
            6280.0,
            6437.0,
            6599.0,
            6768.0,
            6944.0,
            7126.0,
            7316.0,
            7514.0,
            7719.0,
            7933.0,
            8156.0,
            8389.0,
            8509.0,
            8632.0,
            8757.0,
            8885.0,
            9016.0,
            9150.0,
            9287.0,
            9427.0,
            9570.0,
            9716.0,
            9866.0,
            10020.0,
            10180.0,
            10340.0,
            10500.0,
            10670.0,
            10840.0,
            11020.0,
            11200.0,
            11390.0,
            11580.0,
            11770.0,
            11970.0,
            12180.0,
            12390.0,
            12600.0,
            12820.0,
            13050.0,
            13290.0,
            13530.0,
            13770.0,
            14030.0,
            14290.0,
            14550.0,
            14830.0,
            15110.0,
            15400.0,
            15700.0,
            16010.0,
            16330.0,
            16660.0,
            16990.0,
            17340.0,
            17700.0,
            18070.0,
            18450.0,
            18850.0,
            19250.0,
            19670.0,
            20110.0,
            20550.0,
            21020.0,
            21500.0,
            21990.0,
            22510.0,
            23040.0,
            23590.0,
            24160.0,
            24750.0,
            25360.0,
            26000.0,
            26660.0,
            27340.0,
            28060.0,
            28800.0,
            29570.0,
            30370.0,
            31210.0,
            32080.0,
            32980.0,
            33930.0,
            34920.0,
            35950.0,
            37030.0,
            38150.0,
            39330.0,
            40570.0,
            41860.0,
            43220.0,
            44640.0,
            46130.0,
            47710.0,
            49360.0,
            51100.0,
            52930.0,
            54870.0,
            56910.0,
            59070.0,
            61350.0,
            63770.0,
            66340.0,
            69060.0,
            71960.0,
            75040.0,
            78320.0,
            81820.0,
            85560.0,
            89570.0,
            93860.0,
            98470.0,
            103400.0,
            108800.0,
            114500.0,
            120800.0,
            124100.0,
            127500.0,
            134900.0,
            142900.0,
            151600.0,
            161200.0,
            163700.0,
            166300.0,
            169000.0,
            171700.0,
            177300.0,
            183200.0,
            186300.0,
            189400.0,
            192700.0,
            196000.0,
            202900.0,
            210100.0,
            213900.0,
            217800.0,
            221800.0,
            225900.0,
            230100.0,
            234400.0,
            238800.0,
            243400.0,
            263100.0,
            268400.0,
            273900.0,
            279500.0,
            285300.0,
            291300.0,
            297500.0,
            303800.0,
            310400.0,
            324200.0,
            339000.0,
            354800.0,
            371700.0,
            389900.0
          ],
          [
            2.524,
            2.564,
            2.605,
            2.648,
            2.691,
            2.735,
            2.78,
            2.827,
            2.874,
            2.923,
            2.973,
            3.025,
            3.077,
            3.132,
            3.187,
            3.244,
            3.303,
