{
  "entry": "D0784",
  "last_updated": "2016-05-03",
  "number_of_revisions": "1",
  "histories": [
    {
      "x4_code": "(20151202C)",
      "free_txt": [
        " VS"
      ]
    }
  ],
  "bib_record": {
    "title": "A study of excited states in 33Cl by elastic proton scattering on 32S",
    "authors": [
      {
        "name": "L.K.Fifield"
      },
      {
        "name": "A.R.Poletti"
      }
    ],
    "institutes": [
      {
        "x4_code": "(3NZLNZA)",
        "free_txt": []
      }
    ],
    "references": {
      "0": [
        {
          "x4_code": "(J,NP/A,220,183,1974)",
          "free_txt": [],
          "publication_year": "1974"
        }
      ]
    },
    "facilities": {
      "0": [
        {
          "x4_code": "(VDGT,3NZLNZA)",
          "free_txt": [],
          "facility_type": "(VDGT)",
          "institute": "(3NZLNZA)"
        }
      ]
    }
  },
  "data_tables": {
    "001": {
      "common": {
        "heads": [
          "EN-NRM",
          "EN-RES-MIN",
          "ERR-1"
        ],
        "units": [
          "MEV",
          "KEV",
          "PER-CENT"
        ],
        "data": [
          [
            1.4
          ],
          [
            2.0
          ],
          [
            1.0
          ]
        ]
      }
    },
    "002": {
      "reaction": {
        "0": {
          "x4_code": "(16-S-32(P,EL)16-S-32,,DA)",
          "0": {
            "code": [
              "16-S-32",
              [
                "P,EL"
              ],
              "16-S-32,,DA"
            ],
            "type": null,
            "target": "16-S-32",
            "process": "P,EL",
            "sf49": "16-S-32,,DA",
            "sf4": "16-S-32",
            "sf5": null,
            "sf6": "DA",
            "sf7": null,
            "sf8": null,
            "sf9": null
          },
          "type": null,
          "free_text": ""
        }
      },
      "common": {
        "heads": [
          "ANG"
        ],
        "units": [
          "ADEG"
        ],
        "data": [
          [
            88.3
          ]
        ]
      },
      "data": {
        "heads": [
          "EN",
          "DATA"
        ],
        "units": [
          "MEV",
          "MB/SR"
        ],
        "data": [
          [
            3.845,
            3.8472,
            3.8505,
            3.8538,
            3.8582,
            3.8626,
            3.8692,
            3.8736,
            3.8802,
            3.8846,
            3.889,
            3.8945,
            3.9,
            3.9044,
            3.9088,
            3.9143,
            3.9198,
            3.9253,
            3.9286,
            3.9341,
            3.9407,
            3.9451,
            3.9517,
            3.9561,
            3.9605,
            3.9649,
            3.9693,
            3.977,
            3.98081,
            3.98264,
            3.98445,
            3.98669,
            3.98853,
            3.99056,
            3.99157,
            3.99256,
            3.99316,
            3.99431,
            3.99535,
            3.9963,
            3.99718,
            3.9986,
            4.00042,
            4.00224,
            4.00445,
            4.00628,
            4.00834,
            4.0111,
            4.0133,
            4.0188,
            4.02379,
            4.02542,
            4.02663,
            4.02785,
            4.02905,
            4.03151,
            4.03311,
            4.03554,
            4.03755,
            4.03967,
            4.04171,
            4.04326,
            4.04509,
            4.04727,
            4.04911,
            4.05181,
            4.05364,
            4.0557,
            4.05771,
            4.06009,
            4.06169,
            4.06372,
            4.06571,
            4.06735,
            4.06938,
            4.07142,
            4.07348,
            4.07593,
            4.07754,
            4.07998,
            4.0837,
            4.087,
            4.0903,
            4.0947,
            4.098,
            4.1002,
            4.1024,
            4.1057,
            4.1068,
            4.1079,
            4.1112,
            4.1123,
            4.1178,
            4.1189,
            4.12167,
            4.12367,
            4.12567,
            4.128,
            4.12967,
            4.13167,
            4.13367,
            4.13467,
            4.13567,
            4.13667,
            4.138,
            4.139,
            4.14,
            4.141,
            4.142,
            4.143,
            4.144,
            4.145,
            4.146,
            4.14733,
            4.1475,
            4.1497,
            4.1508,
            4.1552,
            4.1596,
            4.1629,
            4.1662,
            4.1673,
            4.1706,
            4.1739,
            4.1772,
            4.1794,
            4.1816,
            4.1849,
            4.186,
            4.1893,
            4.1937,
            4.1981,
            4.2014,
            4.2058,
            4.2102,
            4.2146,
            4.2168,
            4.2168,
            4.219,
            4.2256,
            4.23,
            4.2344,
            4.2366,
            4.2377,
            4.241,
            4.2432,
            4.2487,
            4.2509,
            4.2564,
            4.2586,
            4.263,
            4.2663,
            4.2707,
            4.2762,
            4.2784,
            4.2839,
            4.2883,
            4.2916,
            4.296,
            4.2982,
            4.3037,
            4.3059,
            4.3114,
            4.3136,
            4.3202,
            4.3235,
            4.3279,
            4.3323,
            4.3334,
            4.3389,
            4.3444,
            4.3477,
            4.3521,
            4.3554,
            4.3598,
            4.3631,
            4.3686,
            4.373,
            4.3785,
            4.3829,
            4.3884,
            4.3928,
            4.3994,
            4.4038,
            4.4082,
            4.4126,
            4.4181,
            4.4236,
            4.428,
            4.4324,
            4.4357,
            4.439,
            4.4401,
            4.4423,
            4.4467,
            4.4522,
            4.4555,
            4.4599,
            4.4654,
            4.4676,
            4.4709,
            4.4753,
            4.4797,
            4.4819,
            4.483,
            4.4852,
            4.4863,
            4.4896,
            4.4907,
            4.4918,
            4.4951,
            4.4984,
            4.4995,
            4.5017,
            4.5061,
            4.5105,
            4.5149,
            4.5182,
            4.5226,
            4.5259,
            4.5314,
            4.5336,
            4.538,
            4.5413,
            4.5424,
            4.5457,
            4.549,
            4.5501,
            4.5512,
            4.5545,
            4.5567,
            4.5578,
            4.5589,
            4.5611,
            4.5622,
            4.5655,
            4.5666,
            4.5699,
            4.571,
            4.5743,
            4.5765,
            4.5787,
            4.5809,
            4.582,
            4.5853,
            4.5897,
            4.5941,
            4.5974,
            4.6018,
            4.6084,
            4.6128,
            4.6183,
            4.6249,
            4.6282,
            4.6337,
            4.6381,
            4.6436,
            4.648,
            4.6524,
            4.6579,
            4.6634,
            4.6678,
            4.6733,
            4.6766,
            4.6832,
            4.6876,
            4.692,
            4.6964,
            4.703,
            4.7041,
            4.7063,
            4.7085,
            4.7107,
            4.7118,
            4.7151,
            4.7184,
            4.7195,
            4.7228,
            4.7261,
            4.7272,
            4.7283,
            4.7316,
            4.7327,
            4.7349,
            4.7371,
            4.7393,
            4.7415,
            4.7437,
            4.7448,
            4.7481,
            4.7514,
            4.7536,
            4.7569,
            4.7602,
            4.7635,
            4.769,
            4.7723,
            4.7789,
            4.7833,
            4.7888,
            4.7921,
            4.7987,
            4.8031,
            4.8075,
            4.8119,
            4.8185,
            4.8229,
            4.8273,
            4.8317,
            4.835,
            4.8383,
            4.8394,
            4.8416,
            4.8427,
            4.846,
            4.8493,
            4.8504,
            4.8515,
            4.8537,
            4.857,
            4.8581,
            4.8592,
            4.8614,
            4.8647,
            4.8658,
            4.8691,
            4.8713,
            4.8735,
            4.8746,
            4.8757,
            4.8812,
            4.8823,
            4.8856,
            4.89,
            4.8944,
            4.8977,
            4.9032,
            4.9065,
            4.9087,
            4.9109,
            4.9175,
            4.9219,
            4.9285,
            4.9307,
            4.9373,
            4.9406,
            4.9417,
            4.945,
            4.9483,
            4.9494,
            4.9505,
            4.9538,
            4.956,
            4.9571,
            4.9582,
            4.9604,
            4.9615,
            4.9637,
            4.9648,
            4.9681,
            4.9692,
            4.9725,
            4.9736,
            4.9758,
            4.978,
            4.9802,
            4.9824,
            4.9857,
            4.989,
            4.9923,
            4.9945,
            4.9978,
            5.0011,
            5.0077,
            5.0099,
            5.0143,
            5.0209,
            5.0253,
            5.0297
          ],
          [
            116.111,
            116.131,
            114.365,
            114.384,
            116.2,
            114.444,
            114.483,
            114.513,
            112.767,
            112.797,
            112.826,
            114.652,
            112.896,
            114.711,
            114.741,
            114.78,
            114.81,
            114.849,
            114.869,
            113.123,
            113.163,
            107.835,
            109.661,
            109.69,
            107.934,
            111.535,
            113.351,
            111.614,
            110.201,
            110.163,
            104.412,
            103.958,
            104.329,
            101.431,
            100.593,
            95.267,
            91.173,
            77.68,
            81.741,
            107.028,
            119.255,
            119.225,
            114.29,
            111.804,
            105.229,
            104.375,
            108.006,
            106.475,
            106.495,
            104.739,
            103.248,
            103.179,
            101.461,
            101.41,
            98.859,
            99.589,
            97.021,
            94.418,
            91.833,
            99.245,
            99.992,
            91.593,
            70.679,
            43.916,
            64.675,
            129.572,
            149.498,
            151.078,
            147.66,
            141.725,
            138.324,
            136.572,
            132.32,
            132.252,
            131.333,
            131.247,
            133.66,
            133.557,
            130.989,
            130.053,
            124.807,
            128.398,
            128.418,
            128.447,
            117.753,
            114.201,
            110.64,
            101.731,
            96.384,
            67.823,
            94.628,
            105.352,
            107.167,
            108.963,
            107.91,
            110.55,
            111.87,
            114.51,
            114.51,
            115.82,
            129.01,
            136.92,
            148.79,
            171.21,
            194.95,
            213.41,
            201.54,
            168.57,
            134.29,
            121.1,
            111.87,
            106.59,
            105.27,
            101.32,
            110.937,
            102.018,
            100.242,
            98.486,
            96.73,
            93.179,
            94.984,
            105.708,
            111.085,
            114.676,
            114.696,
            112.93,
            114.726,
            116.531,
            118.327,
            116.561,
            118.376,
            121.977,
            121.997,
            123.812,
            125.628,
            125.658,
            131.024,
            129.239,
            132.83,
            132.869,
            136.471,
            136.5,
            138.296,
            140.091,
            138.325,
            140.131,
            140.161,
            136.609,
            133.067,
            129.516,
            127.76,
            125.994,
            122.452,
            117.125,
            117.145,
            113.603,
            108.275,
            104.724,
            102.968,
            102.988,
            101.232,
            99.466,
            97.71,
            95.944,
            94.198,
            92.432,
            92.462,
            92.491,
            90.715,
            88.959,
            87.213,
            89.019,
            89.048,
            83.711,
            83.741,
            83.761,
            85.586,
            83.83,
            82.074,
            82.104,
            82.143,
            82.173,
            82.212,
            82.242,
            80.486,
            80.516,
            80.545,
            80.585,
            78.829,
            78.859,
            80.664,
            82.47,
            80.694,
            77.132,
            77.162,
            77.202,
            73.65,
            77.251,
            73.709,
            71.943,
            70.178,
            70.207,
            70.237,
            66.675,
            63.114,
            55.981,
            47.063,
            36.368,
            56.021,
            86.387,
            116.764,
            114.998,
            111.436,
            107.875,
            107.905,
            104.363,
            102.607,
            100.841,
            100.871,
            100.89,
            97.359,
            97.368,
            97.398,
            93.847,
            92.071,
            88.519,
            86.753,
            84.977,
            81.416,
            79.65,
            74.303,
            68.956,
            60.037,
            49.333,
            17.201,
            35.077,
            83.301,
            111.891,
            115.473,
            110.135,
            106.574,
            99.451,
            94.104,
            90.542,
            88.776,
            85.235,
            83.479,
            79.927,
            78.171,
            76.425,
            74.669,
            72.923,
            72.962,
            71.197,
            67.665,
            67.694,
            67.724,
            62.397,
            62.426,
            62.466,
            58.924,
            55.383,
            53.636,
            51.871,
            48.339,
            44.797,
            39.47,
            32.357,
            27.039,
            23.478,
            19.916,
            18.15,
            14.589,
            12.813,
            11.047,
            11.067,
            21.791,
            28.953,
            41.473,
            55.768,
            66.492,
            82.583,
            91.522,
            102.246,
            109.408,
            116.561,
            118.366,
            120.162,
            123.743,
            121.977,
            123.783,
            122.017,
            122.037,
            120.271,
            118.505,
            116.759,
            116.779,
            113.247,
            111.491,
            109.745,
            111.55,
            108.018,
            99.12,
            95.578,
            92.036,
            88.504,
            84.963,
            79.635,
            77.879,
            77.899,
            76.133,
            74.357,
            72.582,
            70.806,
            67.254,
            65.488,
            60.141,
            58.365,
            53.018,
            47.681,
            40.548,
            35.201,
            38.782,
            45.945,
            58.454,
            72.76,
            87.065,
            88.86,
            92.442,
            94.237,
            96.053,
            94.277,
            92.511,
            92.541,
            87.213,
            87.233,
            87.273,
            80.15,
            83.731,
            81.965,
            76.648,
            76.677,
            76.717,
            73.165,
            69.633,
            69.653,
            67.877,
            66.112,
            64.346,
            60.784,
            59.008,
            57.242,
            51.895,
            46.548,
            44.772,
            41.211,
            32.292,
            26.945,
            23.384,
            14.475,
            18.056,
            23.433,
            43.086,
            55.595,
            75.258,
            91.339,
            94.93,
            100.307,
            102.112,
            102.132,
            98.58,
            96.814,
            95.049,
            93.302,
            95.108,
            89.781,
            89.82,
            89.85,
            88.094
          ]
        ]
      }
    },
    "003": {
      "reaction": {
        "0": {
          "x4_code": "(16-S-32(P,EL)16-S-32,,DA)",
          "0": {
            "code": [
              "16-S-32",
              [
                "P,EL"
              ],
              "16-S-32,,DA"
            ],
            "type": null,
            "target": "16-S-32",
            "process": "P,EL",
            "sf49": "16-S-32,,DA",
            "sf4": "16-S-32",
            "sf5": null,
            "sf6": "DA",
            "sf7": null,
            "sf8": null,
            "sf9": null
          },
          "type": null,
          "free_text": ""
        }
      },
      "common": {
        "heads": [
          "ANG"
        ],
        "units": [
          "ADEG"
        ],
        "data": [
          [
            121.7
          ]
        ]
      },
      "data": {
        "heads": [
          "EN",
          "DATA"
        ],
        "units": [
          "MEV",
          "MB/SR"
        ],
        "data": [
          [
            3.842,
            3.847,
            3.85,
            3.853,
            3.858,
            3.864,
            3.868,
            3.873,
            3.879,
            3.884,
            3.888,
            3.894,
            3.899,
            3.904,
            3.908,
            3.914,
            3.919,
            3.923,
            3.928,
            3.933,
            3.939,
            3.943,
            3.948,
            3.954,
            3.959,
            3.963,
            3.969,
            3.974,
            3.979,
            3.98225,
            3.98429,
            3.98633,
            3.98837,
            3.9902,
            3.99122,
            3.99204,
            3.99408,
            3.9951,
            3.99612,
            3.99714,
            3.99796,
            3.99918,
            4.0002,
            4.00224,
            4.00408,
            4.00612,
            4.00796,
            4.008,
            4.012,
            4.02143,
            4.02388,
            4.02551,
            4.02755,
            4.02796,
            4.03163,
            4.03367,
            4.03571,
            4.03775,
            4.03939,
            4.04143,
            4.04387,
            4.04551,
            4.04714,
            4.04836,
            4.04959,
            4.05163,
            4.05326,
            4.05571,
            4.05775,
