{
  "entry": "14091",
  "last_updated": "2018-01-23",
  "number_of_revisions": "3",
  "histories": [
    {
      "x4_code": "(20061027C)",
      "free_txt": [
        " DR"
      ]
    },
    {
      "x4_code": "(20100617A)",
      "free_txt": [
        " OS. METHOD added"
      ]
    },
    {
      "x4_code": "(20171113A)",
      "free_txt": [
        " OS. REACTIONs updated"
      ]
    }
  ],
  "bib_record": {
    "title": "Characteristics of a lead slowing-down spectrometer coupled to the LANSCE accelerator",
    "authors": [
      {
        "name": "D.Rochman"
      },
      {
        "name": "R.C.Haight"
      },
      {
        "name": "J.M.O'Donnell"
      },
      {
        "name": "A.Michaudon"
      },
      {
        "name": "S.A.Wender"
      },
      {
        "name": "D.J.Vieira"
      },
      {
        "name": "E.M.Bond"
      },
      {
        "name": "T.A.Bredeweg"
      },
      {
        "name": "A.Kronenberg"
      },
      {
        "name": "J.B.Wilhelmy"
      },
      {
        "name": "T.Ethvignot"
      },
      {
        "name": "T.Granier"
      },
      {
        "name": "M.Petit"
      },
      {
        "name": "Y.Danon"
      }
    ],
    "institutes": [
      {
        "x4_code": "(1USARPI)",
        "free_txt": ""
      },
      {
        "x4_code": "(1USALAS)",
        "free_txt": ""
      },
      {
        "x4_code": "(1USABNL)",
        "free_txt": ""
      },
      {
        "x4_code": "(2FR BRC)",
        "free_txt": ""
      }
    ],
    "references": [
      {
        "x4_code": "(J,NIM/A,550,397,2005)",
        "free_txt": [],
        "publication_year": "2005",
        "doi": null,
        "pointer": "0"
      }
    ],
    "facilities": [
      {
        "x4_code": "(LINAC,1USALAS)",
        "free_txt": [
          " Los Alamos Neutron Science Center",
          " (LANSCE)"
        ],
        "pointer": "0",
        "facility_type": "(LINAC)",
        "institute": "(1USALAS)"
      }
    ]
  },
  "reactions": {
    "002": {
      "0": {
        "x4_code": "(92-U-235(N,F),,SIG,,SDT)",
        "children": [
          {
            "code": [
              "92-U-235",
              [
                "N,F"
              ],
              ",,SIG,,SDT"
            ],
            "type": null,
            "target": "92-U-235",
            "process": "N,F",
            "sf49": ",,SIG,,SDT",
            "sf4": null,
            "sf5": null,
            "sf6": "SIG",
            "sf7": null,
            "sf8": "SDT",
            "sf9": null
          }
        ],
        "type": null,
        "free_text": "",
        "pointer": "0"
      }
    },
    "003": {
      "0": {
        "x4_code": "(94-PU-239(N,F),,SIG,,SDT/AV)",
        "children": [
          {
            "code": [
              "94-PU-239",
              [
                "N,F"
              ],
              ",,SIG,,SDT/AV"
            ],
            "type": null,
            "target": "94-PU-239",
            "process": "N,F",
            "sf49": ",,SIG,,SDT/AV",
            "sf4": null,
            "sf5": null,
            "sf6": "SIG",
            "sf7": null,
            "sf8": "SDT/AV",
            "sf9": null
          }
        ],
        "type": null,
        "free_text": " Data averaged over large energy bins",
        "pointer": "0"
      }
    }
  },
  "data_tables": {
    "001": {
      "common": null
    },
    "002": {
      "common": null,
      "data": {
        "heads": [
          "EN",
          "DATA"
        ],
        "units": [
          "KEV",
          "B"
        ],
        "data": [
          [
            20.403,
            19.695,
            19.024,
            18.387,
            17.781,
            17.205,
            16.656,
            16.133,
            15.635,
            15.159,
            14.704,
            14.27,
            13.854,
            13.457,
            13.076,
            12.712,
            12.362,
            12.026,
            11.704,
            11.395,
            11.098,
            10.812,
            10.538,
            10.273,
            10.019,
            9.7734,
            9.537,
            9.3091,
            9.0893,
            8.8772,
            8.6724,
            8.4747,
            8.2836,
            8.0989,
            7.9203,
            7.7476,
            7.5804,
            7.4186,
            7.262,
            7.1102,
            6.9631,
            6.8206,
            6.6824,
            6.5484,
            6.4183,
            6.2921,
            6.1696,
            6.0506,
            5.935,
            5.8227,
            5.7136,
            5.6075,
            5.5043,
            5.4039,
            5.3063,
            5.2113,
            5.1188,
            5.0288,
            4.9411,
            4.8557,
            4.7725,
            4.6914,
            4.6123,
            4.5353,
            4.4601,
            4.3868,
            4.3153,
            4.2456,
            4.1775,
            4.111,
            4.0461,
            3.9827,
            3.9208,
            3.8604,
            3.8013,
            3.7436,
            3.6872,
            3.632,
            3.5781,
            3.5254,
            3.4738,
            3.4233,
            3.374,
            3.3257,
            3.2784,
            3.2321,
            3.1868,
            3.1425,
            3.099,
            3.0565,
            3.0148,
            2.974,
            2.934,
            2.8948,
            2.8564,
            2.8187,
            2.7818,
            2.7456,
            2.7101,
            2.6753,
            2.6412,
            2.6077,
            2.5748,
            2.5426,
            2.5109,
            2.4799,
            2.4494,
            2.4194,
            2.3901,
            2.3612,
            2.3329,
            2.3051,
            2.2777,
            2.2509,
            2.2245,
            2.1986,
            2.1732,
            2.1481,
            2.1235,
            2.0994,
            2.0756,
            2.0522,
            2.0293,
            2.0067,
            1.9845,
            1.9626,
            1.9412,
            1.92,
            1.8992,
            1.8788,
            1.8586,
            1.8388,
            1.8194,
            1.8002,
            1.7813,
            1.7627,
            1.7444,
            1.7264,
            1.7087,
            1.6912,
            1.674,
            1.6571,
            1.6404,
            1.624,
            1.6078,
            1.5918,
            1.5761,
            1.5607,
            1.5454,
            1.5304,
            1.5156,
            1.501,
            1.4866,
            1.4724,
            1.4585,
            1.4447,
            1.4311,
            1.4177,
            1.4045,
            1.3915,
            1.3786,
            1.366,
            1.3535,
            1.3411,
            1.329,
            1.317,
            1.3052,
            1.2935,
            1.282,
            1.2706,
            1.2594,
            1.2484,
            1.2374,
            1.2267,
            1.216,
            1.2055,
            1.1952,
            1.185,
            1.1749,
            1.1649,
            1.155,
            1.1453,
            1.1357,
            1.1263,
            1.1169,
            1.1077,
            1.0985,
            1.0895,
            1.0806,
            1.0718,
            1.0631,
            1.0545,
            1.0461,
            1.0377,
            1.0294,
            1.0212,
            1.0131,
            1.0051,
            0.99335,
            0.97793,
            0.96287,
            0.94815,
            0.93378,
            0.91971,
            0.90597,
            0.89253,
            0.87939,
            0.86654,
            0.85397,
            0.84167,
            0.82964,
            0.81786,
            0.80632,
            0.79504,
            0.78397,
            0.77316,
            0.76255,
            0.75217,
            0.74199,
            0.73203,
            0.72225,
            0.71268,
            0.70329,
            0.69409,
            0.68507,
            0.67622,
            0.66754,
            0.65902,
            0.65068,
            0.64248,
            0.63445,
            0.62655,
            0.61882,
            0.61121,
            0.60376,
            0.59643,
            0.58924,
            0.58217,
            0.57524,
            0.56842,
            0.56173,
            0.55515,
            0.54869,
            0.54234,
            0.53611,
            0.52997,
            0.52394,
            0.51802,
            0.51219,
            0.50647,
            0.50084,
            0.49529,
            0.48985,
            0.48449,
            0.47922,
            0.47403,
            0.46893,
            0.46392,
            0.45898,
            0.45411,
            0.44933,
            0.44462,
            0.43999,
            0.43543,
            0.43094,
            0.42651,
            0.42215,
            0.41786,
            0.41364,
            0.40948,
            0.40539,
            0.40135,
            0.39737,
            0.39345,
            0.38959,
            0.38578,
            0.38204,
            0.37834,
            0.37471,
            0.37112,
            0.36758,
            0.3641,
            0.36066,
            0.35727,
            0.35393,
            0.35063,
            0.34739,
            0.34418,
            0.34102,
            0.33791,
            0.33483,
            0.3318,
            0.32881,
            0.32586,
            0.32294,
            0.32007,
            0.31723,
            0.31444,
            0.31167,
            0.30895,
            0.30627,
            0.30361,
            0.301,
            0.29841,
            0.29585,
            0.29334,
            0.29085,
            0.28839,
            0.28597,
            0.28121,
            0.27887,
            0.27657,
            0.2743,
            0.27204,
            0.26982,
            0.26763,
            0.26546,
            0.26332,
            0.2612,
            0.25911,
            0.25704,
            0.255,
            0.25298,
            0.25099,
            0.24902,
            0.24707,
            0.24515,
            0.24325,
            0.24137,
            0.23951,
            0.23768,
            0.23586,
            0.23407,
            0.23229,
            0.23053,
            0.2288,
            0.22709,
            0.22539,
            0.22372,
            0.22206,
            0.22042,
            0.21879,
            0.21719,
            0.2156,
            0.21404,
            0.21249,
            0.21095,
            0.20943,
            0.20793,
            0.20644,
            0.20497,
            0.20352,
            0.20208,
            0.20066,
            0.19925,
            0.19785,
            0.19648,
            0.19511,
            0.19376,
            0.19242,
            0.1911,
            0.18979,
            0.18849,
            0.18721,
            0.18593,
            0.18468,
            0.18344,
            0.18221,
            0.18099,
            0.17978,
            0.17858,
            0.1774,
            0.17623,
            0.17507,
            0.17392,
            0.17278,
            0.17166,
            0.17054,
            0.16944,
            0.16834,
            0.16726,
            0.16619,
            0.16512,
            0.16407,
            0.16303,
            0.162,
            0.16098,
            0.15997,
            0.15896,
            0.15796,
            0.15699,
            0.15601,
            0.15504,
            0.15408,
            0.15313,
            0.1522,
            0.15126,
            0.15034,
            0.14943,
            0.14852,
            0.14762,
            0.14673,
            0.14585,
            0.14497,
            0.14411,
            0.14325,
            0.1424,
            0.14156,
            0.14072,
            0.13989,
            0.13908,
            0.13826,
            0.13745,
            0.13665,
            0.13586,
            0.13508,
            0.1343,
            0.13353,
            0.13276,
            0.132,
            0.13125,
            0.13051,
            0.12976,
            0.12903,
            0.1283,
            0.12758,
            0.12687,
            0.12615,
            0.12546,
            0.12476,
            0.12406,
            0.12338,
            0.1227,
            0.12202,
            0.12136,
            0.1207,
            0.12004,
            0.11938,
            0.11873,
            0.11809,
            0.11746,
            0.11683,
            0.1162,
            0.11558,
            0.11496,
            0.11435,
            0.11374,
            0.11314,
            0.11254,
            0.11195,
            0.11136,
            0.11078,
            0.1102,
            0.10963,
            0.10906,
            0.10849,
            0.10793,
            0.10737,
            0.10682,
            0.10627,
            0.10573,
            0.10519,
            0.10466,
            0.10412,
            0.1036,
            0.10307,
            0.10255,
            0.10204,
            0.10153,
            0.10101,
            0.10051,
            0.10002,
            0.09902,
            0.09757,
            0.09614,
            0.09474,
            0.09338,
            0.09205,
            0.09074,
            0.08947,
            0.08821,
            0.08699,
            0.08579,
            0.08461,
            0.08346,
            0.08233,
            0.08123,
            0.08014,
            0.07908,
            0.07804,
            0.07702,
            0.07602,
            0.07504,
            0.07408,
            0.07313,
            0.07221,
            0.07129,
            0.0704,
            0.06953,
            0.06867,
            0.06783,
            0.067,
            0.06619,
            0.06539,
            0.06461,
            0.06384,
            0.06309,
            0.06234,
            0.06161,
            0.06089,
            0.06019,
            0.0595,
            0.05882,
            0.05815,
            0.05749,
            0.05685,
            0.05621,
            0.05559,
            0.05497,
            0.05437,
            0.05377,
            0.05319,
            0.05262,
            0.05205,
            0.05149,
            0.05094,
            0.0504,
            0.04987,
            0.04935,
            0.04884,
            0.04833,
            0.04783,
            0.04734,
            0.04686,
            0.04638,
            0.04591,
            0.04545,
            0.045,
            0.04455,
            0.04411,
            0.04367,
            0.04324,
            0.04283,
            0.04241,
            0.042,
            0.04159,
            0.0412,
            0.04081,
            0.04042,
            0.04004,
            0.03966,
            0.03929,
            0.03892,
            0.03856,
            0.03821,
            0.03786,
            0.03751,
            0.03717,
            0.03683,
            0.0365,
            0.03617,
            0.03585,
            0.03553,
            0.03522,
            0.03491,
            0.0346,
            0.03429,
            0.034,
            0.0337,
            0.03342,
            0.03313,
            0.03284,
            0.03256,
            0.03229,
            0.03202,
            0.03175,
            0.03148,
            0.03122,
            0.03096,
            0.03071,
            0.03045,
            0.0302,
            0.02995,
            0.02971,
            0.02947,
            0.02923,
            0.029,
            0.02877,
            0.02854,
            0.02831,
            0.02809,
            0.02787,
            0.02765,
            0.02743,
            0.02722,
            0.02701,
            0.0268,
            0.02659,
            0.02639,
            0.02619,
            0.02599,
            0.02579,
            0.0256,
            0.0254,
            0.02521,
            0.02502,
            0.02484,
            0.02466,
            0.02448,
            0.0243,
            0.02412,
            0.02394,
            0.02377,
            0.02359,
            0.02342,
            0.02325,
            0.02309,
            0.02292,
            0.02276,
            0.0226,
            0.02244,
            0.02228,
            0.02212,
            0.02197,
            0.02182,
            0.02167,
            0.02151,
            0.02136,
            0.02122,
            0.02107,
            0.02093,
            0.02079,
            0.02065,
            0.0205,
            0.02037,
            0.02023,
            0.02009,
            0.01996,
            0.01983,
            0.0197,
            0.01957,
            0.01944,
            0.01931,
            0.01919,
            0.01906,
            0.01894,
            0.01881,
            0.01869,
            0.01857,
            0.01845,
            0.01834,
            0.01822,
            0.0181,
            0.01799,
            0.01787,
            0.01776,
            0.01765,
            0.01754,
            0.01743,
            0.01732,
            0.01722,
            0.01711,
            0.017,
            0.0169,
            0.0168,
            0.0167,
            0.01659,
            0.01649,
            0.01639,
            0.01629,
            0.0162,
            0.0161,
            0.016,
            0.01591,
            0.01581,
            0.01572,
            0.01563,
            0.01554,
            0.01545,
            0.01536,
            0.01527,
            0.01517,
            0.01509,
            0.015,
            0.01491,
            0.01483,
            0.01474,
            0.01466,
            0.01457,
            0.01449,
            0.01441,
            0.01433,
            0.01425,
            0.01417,
            0.01409,
            0.01401,
            0.01393,
            0.01385,
            0.01378,
            0.0137,
            0.01363,
            0.01355,
            0.01348,
            0.0134,
            0.01333,
            0.01326,
            0.01319,
            0.01311,
            0.01304,
            0.01297,
            0.01291,
            0.01283,
            0.01277,
            0.0127,
            0.01263,
            0.01257,
            0.0125,
            0.01243,
            0.01236,
            0.01231,
            0.01223,
            0.01218,
            0.01211,
            0.01205,
            0.01199,
            0.01193,
            0.01187,
            0.01181,
            0.01175,
            0.01168,
            0.01163,
            0.01157,
            0.01151,
            0.01145,
            0.01138,
            0.01134,
            0.01128,
            0.01122,
            0.01117,
            0.01111,
            0.01105,
            0.011,
            0.01095,
            0.01089,
            0.01083,
            0.01078,
            0.01073,
            0.01068,
            0.01063,
            0.01057,
            0.01052,
            0.01047,
            0.01042,
            0.01037,
            0.01032,
            0.01027,
            0.01022,
            0.01017,
            0.01013,
            0.01008,
            0.01003,
            0.00994,
            0.0098,
            0.00966,
            0.00953,
            0.0094,
            0.00927,
            0.00914,
            0.00902,
            0.0089,
            0.00878,
            0.00867,
            0.00855,
            0.00844,
            0.00833,
            0.00823,
            0.00812,
            0.00802,
            0.00792,
            0.00782,
            0.00772,
            0.00763,
            0.00753,
            0.00744,
            0.00735,
            0.00726,
            0.00718,
            0.00709,
            0.00701,
            0.00692,
            0.00684,
            0.00676,
            0.00669,
            0.00661,
            0.00653,
