{
  "bib": {
    "title": "Energy spectra of delayed neutrons at beta- decay of cesium 141-146",
    "authors": [
      {
        "name": "H.Ohm"
      },
      {
        "name": "K.-L.Kratz"
      },
      {
        "name": "C.Ristori"
      },
      {
        "name": "J.Crancon"
      },
      {
        "name": "W.D.Wuensch"
      },
      {
        "name": "G.Jung"
      }
    ],
    "institutes": [
      {
        "x4_code": "(2FR ILL)",
        "free_txt": []
      }
    ],
    "references": {
      "0": [
        {
          "x4_code": "(P,MAINZ-77,59,1978)",
          "free_txt": [
            " In German"
          ],
          "publication_year": "1978"
        }
      ]
    },
    "facility": {
      "0": [
        {
          "x4_code": "(REAC,2FR ILL)",
          "free_txt": [
            "  On-line separator OSTIS"
          ],
          "facility_type": "(REAC)",
          "insitute": "(2FR ILL)"
        }
      ]
    },
    "history": [
      {
        "x4_code": "(20170625C)",
        "free_txt": [
          " M.M."
        ]
      }
    ]
  },
  "23344-001": {
    "extra_information": {
      "correction": {
        "0": [
          {
            "x4_code": null,
            "free_txt": [
              " - For thermal neutrons peak .",
              " - Background.",
              " - Detection efficiency."
            ]
          }
        ]
      },
      "facility": {
        "0": [
          {
            "x4_code": "(REAC,2FR ILL)",
            "free_txt": [
              "  On-line separator OSTIS"
            ]
          }
        ]
      }
    }
  },
  "23344-002": {
    "reaction": {
      "0": {
        "x4_code": "(55-CS-141(0,B-)56-BA-141,,PN/DE,,REL)",
        "0": {
          "code": [
            "55-CS-141",
            [
              "0,B-"
            ],
            "56-BA-141,,PN/DE,,REL"
          ],
          "type": null,
          "target": "55-CS-141",
          "process": "0,B-",
          "sf49": "56-BA-141,,PN/DE,,REL",
          "sf4": "56-BA-141",
          "sf5": null,
          "sf6": "PN/DE",
          "sf7": null,
          "sf8": "REL",
          "sf9": null
        },
        "type": null,
        "free_text": ""
      }
    },
    "extra_information": {
      "decay-data": {
        "0": [
          {
            "x4_code": "(55-CS-141,25.SEC)",
            "free_txt": []
          }
        ]
      },
      "en-sec": {
        "0": [
          {
            "x4_code": "(E,N)",
            "free_txt": [
              " Energy of delayed neutrons."
            ]
          }
        ]
      },
      "err-analys": {
        "0": [
          {
            "x4_code": "(E-ERR-DIG)",
            "free_txt": [
              " Digitizing error of E ( X scale)"
            ]
          },
          {
            "x4_code": "(ERR-DIG)",
            "free_txt": [
              "    Digitizing error of DATA ( Y scale)",
              "Quantization errors (one pixel):",
              "scale X - 0.870 keV, scale Y - 0.298 arb.units."
            ]
          }
        ]
      },
      "status": {
        "0": [
          {
            "x4_code": "(CURVE)",
            "free_txt": [
              " Fig.29a of P,MAINZ-77,59,197"
            ]
          }
        ]
      }
    },
    "common": {
      "heads": [
        "E-ERR-DIG",
        "ERR-DIG"
      ],
      "units": [
        "KEV",
        "ARB-UNITS"
      ],
      "data": [
        [
          0.553
        ],
        [
          0.236
        ]
      ]
    },
    "data": {
      "heads": [
        "E-MIN",
        "E-MAX",
        "DATA"
      ],
      "units": [
        "KEV",
        "KEV",
        "ARB-UNITS"
      ],
      "data": [
        [
          null,
          12.999,
          15.423,
          19.055,
          22.493,
          25.572,
          28.599,
          31.039,
          33.762,
          36.647,
          39.569,
          43.202,
          45.603,
          48.353,
          50.665,
          54.831,
          57.603,
          60.525,
          63.945,
          67.045,
          72.809,
          75.585,
          81.453,
          85.111,
          88.346,
          91.626,
          94.718,
          96.37,
          100.315,
          102.675,
          106.22,
          109.775,
          114.935,
          117.4,
          120.79,
          124.045,
          126.675,
          129.185,
          132.375,
          135.585,
          138.94,
          142.33,
          144.89,
          148.18,
          150.975,
          153.71,
          156.795,
          158.525,
          160.6,
          163.475,
          165.865,
          168.83,
          171.855,
          174.845,
          178.885,
          181.42,
          184.585,
          187.92,
          190.165,
          192.81,
          195.585,
          198.075,
          201.28,
          204.885,
          207.49,
          210.095,
          214.42,
          216.555,
          220.055,
          222.155,
          225.88,
          228.365,
          232.17,
          234.1,
          237.705,
          241.055,
          244.555,
          246.645,
          249.99,
          252.465,
          255.7,
          258.86,
          261.975,
          265.505,
          268.29,
          271.2,
          274.325,
          276.955,
          279.6,
          282.155,
          285.665,
          288.175,
          291.845,
          294.88,
          297.575,
          300.975,
          304.12,
          306.745,
          310.42,
          313.025,
          315.595,
          318.685,
          321.2,
          324.365,
          328.06,
          330.65,
          333.56,
          336.195,
          340.11,
          342.555,
          345.905,
          349.0,
          352.375,
          355.25,
          358.515,
          362.675,
          366.95,
          370.22,
          372.79,
          375.365,
          379.385,
          382.07,
          384.545,
          387.065,
          390.31,
          393.445,
          397.395,
          399.78,
          401.87,
          403.995,
          407.895,
          411.67,
          414.905,
          417.245,
          420.325,
          422.415,
          425.75,
          429.285,
          432.385,
          435.5,
          438.98,
          441.83,
          444.105,
          447.325,
          450.22,
          452.825,
          456.86,
          460.385,
          462.935,
          465.51,
          467.785,
          470.875,
          473.435,
          475.16,
          477.73,
          480.725,
          484.39,
          486.66,
          489.605,
          493.0,
          496.07,
          498.39,
          501.9,
          506.775,
          509.45,
          512.455,
          516.385,
          518.205,
          522.63,
          525.665,
          527.805,
          530.795,
          533.81,
          536.865,
          540.36,
          543.87,
          552.525,
          554.795,
          558.305,
          560.785,
          563.76,
          567.37,
          570.495,
          573.12,
          576.225,
          579.72,
          583.145,
          586.53,
          589.185,
          594.02,
          597.44,
          600.425,
          603.055,
          606.59,
          609.265,
          611.495,
          614.09,
          617.07,
          621.465,
          624.965,
          627.925,
          630.57,
          633.215,
          635.81,
          642.745,
          645.76,
          648.45,
          651.495,
          653.65,
          657.17,
          660.635,
          663.245,
          666.695,
          670.13,
          672.29,
          675.375,
          678.455,
          681.93,
          690.635,
          695.86,
          699.345,
          702.335,
          704.875,
          709.285,
          711.43,
          714.47,
          716.715,
          720.625,
          723.62,
          727.055,
          730.185,
          738.42,
          741.03,
          748.93,
          754.945,
          757.99,
          765.865,
          771.06,
          775.875,
          781.08,
          782.75,
          786.67,
          789.785
        ],
        [
          12.999,
          15.423,
          19.055,
          22.493,
          25.572,
          28.599,
          31.039,
          33.762,
          36.647,
          39.569,
          43.202,
          45.603,
          48.353,
          50.665,
          54.831,
          57.603,
          60.525,
          63.945,
          67.045,
          72.809,
          75.585,
          81.453,
          85.111,
          88.346,
          91.626,
          94.718,
          96.37,
          100.315,
          102.675,
          106.22,
          109.775,
          114.935,
          117.4,
          120.79,
          124.045,
          126.675,
          129.185,
          132.375,
          135.585,
          138.94,
          142.33,
          144.89,
          148.18,
          150.975,
          153.71,
          156.795,
          158.525,
          160.6,
          163.475,
          165.865,
          168.83,
          171.855,
          174.845,
          178.885,
          181.42,
          184.585,
          187.92,
          190.165,
          192.81,
          195.585,
          198.075,
          201.28,
          204.885,
          207.49,
          210.095,
          214.42,
          216.555,
          220.055,
          222.155,
          225.88,
          228.365,
          232.17,
          234.1,
          237.705,
          241.055,
          244.555,
          246.645,
          249.99,
          252.465,
          255.7,
          258.86,
          261.975,
          265.505,
          268.29,
          271.2,
          274.325,
          276.955,
          279.6,
          282.155,
          285.665,
          288.175,
          291.845,
          294.88,
          297.575,
          300.975,
          304.12,
          306.745,
          310.42,
          313.025,
          315.595,
          318.685,
          321.2,
          324.365,
          328.06,
          330.65,
          333.56,
          336.195,
          340.11,
          342.555,
          345.905,
          349.0,
          352.375,
          355.25,
          358.515,
          362.675,
          366.95,
          370.22,
          372.79,
          375.365,
          379.385,
          382.07,
          384.545,
          387.065,
          390.31,
          393.445,
          397.395,
          399.78,
          401.87,
          403.995,
          407.895,
          411.67,
          414.905,
          417.245,
          420.325,
          422.415,
          425.75,
          429.285,
          432.385,
          435.5,
          438.98,
          441.83,
          444.105,
          447.325,
          450.22,
          452.825,
          456.86,
          460.385,
          462.935,
          465.51,
          467.785,
          470.875,
          473.435,
          475.16,
          477.73,
          480.725,
          484.39,
          486.66,
          489.605,
          493.0,
          496.07,
          498.39,
          501.9,
          506.775,
          509.45,
          512.455,
          516.385,
          518.205,
          522.63,
          525.665,
          527.805,
          530.795,
          533.81,
          536.865,
          540.36,
          543.87,
          552.525,
          554.795,
          558.305,
          560.785,
          563.76,
          567.37,
          570.495,
          573.12,
          576.225,
          579.72,
          583.145,
          586.53,
          589.185,
          594.02,
          597.44,
          600.425,
          603.055,
          606.59,
          609.265,
          611.495,
          614.09,
          617.07,
          621.465,
          624.965,
          627.925,
          630.57,
          633.215,
          635.81,
          642.745,
          645.76,
          648.45,
          651.495,
          653.65,
          657.17,
          660.635,
          663.245,
          666.695,
          670.13,
          672.29,
          675.375,
          678.455,
          681.93,
          690.635,
          695.86,
          699.345,
          702.335,
          704.875,
          709.285,
          711.43,
          714.47,
          716.715,
          720.625,
          723.62,
          727.055,
          730.185,
          738.42,
          741.03,
          748.93,
          754.945,
          757.99,
          765.865,
          771.06,
          775.875,
          781.08,
          782.75,
          786.67,
          789.785,
          null
        ],
        [
          10.479,
          26.848,
          43.666,
          77.001,
          128.785,
          226.25,
          287.555,
          334.28,
          345.0,
          362.855,
          366.58,
          335.49,
          325.67,
          310.05,
          301.575,
          342.495,
          349.94,
          364.375,
          360.365,
          354.565,
          340.14,
          324.665,
          301.76,
          292.54,
          267.545,
          250.44,
          258.775,
          265.92,
          252.98,
          232.9,
          240.49,
          219.515,
          251.065,
          245.71,
          266.845,
          286.045,
          339.615,
          304.205,
          313.435,
          274.6,
          258.24,
          212.12,
          188.905,
          168.53,
          155.44,
          145.92,
          147.56,
          147.86,
          164.825,
          178.52,
          204.71,
          191.32,
          208.44,
          201.0,
          185.53,
          214.55,
          164.41,
          161.885,
          151.47,
          155.79,
          199.54,
          176.925,
          170.83,
          154.765,
          171.73,
          155.365,
          175.16,
          162.965,
          171.0,
          176.36,
          204.79,
          198.245,
          224.14,
          241.995,
          201.68,
          186.805,
          197.52,
          202.43,
          220.59,
          227.14,
          186.97,
          205.72,
          173.885,
          197.55,
          219.57,
          221.215,
          205.445,
          217.5,
          276.13,
          305.295,
          270.185,
          245.045,
          236.42,
          246.69,
          220.505,
          183.16,
          202.81,
          179.895,
          167.4,
          180.795,
          174.255,
          172.92,
          189.885,
          152.69,
          150.76,
          155.82,
          174.57,
          151.07,
          174.88,
          102.57,
          119.535,
          93.949,
          138.29,
          124.01,
          98.424,
          79.386,
          111.975,
          116.89,
          118.975,
          122.85,
          99.939,
          109.32,
          123.9,
          125.245,
          87.752,
          109.035,
          81.512,
          70.355,
          96.843,
          78.844,
          99.53,
          103.55,
          65.465,
          74.248,
          59.074,
          87.943,
          85.567,
          77.835,
          75.606,
          65.791,
          74.424,
          100.615,
          56.13,
          69.079,
          83.069,
          70.278,
          60.611,
          62.697,
          70.29,
          69.102,
          52.293,
          60.48,
          61.375,
          63.313,
          67.333,
          72.248,
          34.905,
          54.846,
          52.916,
          69.436,
          47.567,
          44.0,
          41.476,
          27.494,
          29.878,
          35.091,
          26.316,
          20.071,
          13.083,
          22.162,
          19.19,
          31.841,
          23.661,
          29.618,
          20.992,
          23.678,
          28.596,
          6.727,
          22.502,
          30.244,
          34.563,
          7.04,
          19.84,
          4.072,
          9.135,
          1.105,
          18.816,
          17.48,
          10.641,
          8.266,
          21.066,
          18.837,
          17.355,
          8.579,
          5.458,
          0.0,
          7.845,
          10.379,
          0.0,
          6.52,
          14.708,
          0.0,
          9.06,
          1.329,
          12.793,
          6.696,
          0.0,
          5.066,
          2.541,
          0.0,
          4.037,
          0.0,
          8.956,
          6.579,
          11.938,
          0.0,
          5.251,
          0.052,
          2.887,
          0.0,
          0.815,
          9.894,
          13.471,
          0.0,
          18.685,
          0.0,
          6.641,
          0.0,
          15.279,
          6.952,
          0.114,
          11.43,
          0.114,
          0.0,
          13.088,
          0.0,
          4.325,
          2.1,
          0.0,
          4.343,
          11.489,
          2.864,
          0.0
        ]
      ]
    }
  },
  "23344-003": {
    "reaction": {
      "0": {
        "x4_code": "(55-CS-142(0,B-)56-BA-142,,PN/DE,,REL)",
        "0": {
          "code": [
            "55-CS-142",
            [
              "0,B-"
            ],
            "56-BA-142,,PN/DE,,REL"
          ],
          "type": null,
          "target": "55-CS-142",
          "process": "0,B-",
          "sf49": "56-BA-142,,PN/DE,,REL",
          "sf4": "56-BA-142",
          "sf5": null,
          "sf6": "PN/DE",
          "sf7": null,
          "sf8": "REL",
          "sf9": null
        },
        "type": null,
        "free_text": ""
      }
    },
    "extra_information": {
      "decay-data": {
        "0": [
          {
            "x4_code": "(55-CS-142,1.61SEC)",
            "free_txt": []
          }
        ]
      },
      "en-sec": {
        "0": [
          {
            "x4_code": "(E,N)",
            "free_txt": [
              " Energy of delayed neutrons."
            ]
          }
        ]
      },
      "err-analys": {
        "0": [
          {
            "x4_code": "(E-ERR-DIG)",
            "free_txt": [
              " Digitizing error of E ( X scale)"
            ]
          },
          {
            "x4_code": "(ERR-DIG)",
            "free_txt": [
              "    Digitizing error of DATA ( Y scale)",
              "Quantization errors (one pixel):",
              "scale X - 0.923 keV, scale Y - 0.471 arb.units."
            ]
          }
        ]
      },
      "status": {
        "0": [
          {
            "x4_code": "(CURVE)",
            "free_txt": [
              " Fig.29b of P,MAINZ-77,59,197"
            ]
          }
        ]
      }
    },
    "common": {
      "heads": [
        "E-ERR-DIG",
        "ERR-DIG"
      ],
      "units": [
        "KEV",
        "ARB-UNITS"
      ],
      "data": [
        [
          0.415
        ],
        [
          0.342
        ]
      ]
    },
    "data": {
      "heads": [
        "E-MIN",
        "E-MAX",
        "DATA"
      ],
      "units": [
        "KEV",
        "KEV",
        "ARB-UNITS"
      ],
      "data": [
        [
          null,
          9.22,
          11.996,
          14.307,
          15.682,
          17.961,
          19.34,
          21.653,
          24.392,
          26.666,
          28.95,
          30.781,
          33.088,
          35.858,
          37.711,
          41.407,
          44.172,
          46.456,
          48.743,
          51.504,
          53.795,
          56.099,
          59.79,
          62.109,
          63.98,
          65.832,
          68.13,
          69.975,
          71.829,
          73.686,
          76.461,
          78.303,
          80.154,
          82.017,
          84.331,
          87.096,
          89.4,
          91.699,
          97.222,
          99.982,
          103.215,
          105.995,
          107.84,
          110.61,
          113.835,
          115.68,
