{
  "entry": "23345",
  "last_updated": "2018-01-22",
  "number_of_revisions": "1",
  "histories": [
    {
      "x4_code": "(20170720C)",
      "free_txt": [
        " M.M."
      ]
    }
  ],
  "bib_record": {
    "title": "Energy spectra of beta-delayed neutrons from 92, 97, 98-Rb and 147-Cs .",
    "authors": [
      {
        "name": "A.Schroeder"
      },
      {
        "name": "W.Ziegert"
      },
      {
        "name": "K.-L.Kratz"
      },
      {
        "name": "G.Nyman"
      },
      {
        "name": "L.C.Carraz"
      },
      {
        "name": "P.G.Hansen"
      },
      {
        "name": "B.Jonson"
      },
      {
        "name": "H.L.Ravn) And Isolde Collaboratio"
      }
    ],
    "institutes": [
      {
        "x4_code": "(2ZZZCER)",
        "free_txt": [
          " L.C.Carraz,P.G.Hansen,B.Jonson,H.L.Ravn"
        ]
      },
      {
        "x4_code": "(2SWDCTH)",
        "free_txt": [
          " A.Schroeder,W.Ziegert,K.-L.Kratz,G.Nyman"
        ]
      }
    ],
    "references": {
      "0": [
        {
          "x4_code": "(P,MAINZ-78,27,1979)",
          "free_txt": [
            " In German."
          ],
          "publication_year": "1979"
        }
      ]
    },
    "facilities": {
      "0": [
        {
          "x4_code": "(SYNCY,2ZZZCER)",
          "free_txt": [
            " On-line mass-separator ISOLDE facility"
          ],
          "facility_type": "(SYNCY)",
          "institute": "(2ZZZCER)"
        },
        {
          "x4_code": "(OLMS,2ZZZCER)",
          "free_txt": [
            "  at CERN synchrocyclotron ."
          ],
          "facility_type": "(OLMS)",
          "institute": "(2ZZZCER)"
        }
      ]
    }
  },
  "data_tables": {
    "001": {
      "extra_information": {
        "correction": {
          "0": [
            {
              "x4_code": null,
              "free_txt": [
                "For thermal neutrons peak.",
                "For background.",
                "For detection efficiency."
              ]
            }
          ]
        },
        "facility": {
          "0": [
            {
              "x4_code": "(SYNCY,2ZZZCER)",
              "free_txt": [
                " On-line mass-separator ISOLDE facility"
              ]
            },
            {
              "x4_code": "(OLMS,2ZZZCER)",
              "free_txt": [
                "  at CERN synchrocyclotron ."
              ]
            }
          ]
        }
      }
    },
    "002": {
      "reaction": {
        "0": {
          "x4_code": "(37-RB-92(0,B-)38-SR-92,,PN/DE,,REL)",
          "0": {
            "code": [
              "37-RB-92",
              [
                "0,B-"
              ],
              "38-SR-92,,PN/DE,,REL"
            ],
            "type": null,
            "target": "37-RB-92",
            "process": "0,B-",
            "sf49": "38-SR-92,,PN/DE,,REL",
            "sf4": "38-SR-92",
            "sf5": null,
            "sf6": "PN/DE",
            "sf7": null,
            "sf8": "REL",
            "sf9": null
          },
          "type": null,
          "free_text": "Relative intensity of beta-delayed neutrons"
        }
      },
      "extra_information": {
        "decay-data": {
          "0": [
            {
              "x4_code": "(37-RB-92,4.5SEC)",
              "free_txt": []
            }
          ]
        },
        "en-sec": {
          "0": [
            {
              "x4_code": "(E,N)",
              "free_txt": [
                " Delayed neutron energy"
              ]
            }
          ]
        },
        "err-analys": {
          "0": [
            {
              "x4_code": null,
              "free_txt": [
                " Quantization errors (one pixel):",
                " scale X (energy) - 1.64 keV,",
                " scale Y (data) - 0.801 arb.units ."
              ]
            }
          ]
        },
        "status": {
          "0": [
            {
              "x4_code": "(CURVE)",
              "free_txt": [
                " Fig.16a of P,MAINZ-78,27,1979"
              ]
            }
          ]
        }
      },
      "common": {
        "heads": [
          "EN-ERR-DIG",
          "ERR-DIG"
        ],
        "units": [
          "KEV",
          "ARB-UNITS"
        ],
        "data": [
          [
            2.75
          ],
          [
            2.21
          ]
        ]
      },
      "data": {
        "heads": [
          "E-MIN",
          "E-MAX",
          "DATA"
        ],
        "units": [
          "KEV",
          "KEV",
          "ARB-UNITS"
        ],
        "data": [
          [
            3.64,
            6.63,
            9.33,
            12.79,
            16.21,
            19.76,
            23.48,
            28.14,
            32.84,
            36.56,
            40.17,
            46.63,
            49.98,
            54.82,
            58.65,
            61.03,
            65.02,
            69.58,
            73.42,
            77.74,
            82.73,
            89.85,
            95.04,
            99.48,
            103.53,
            106.67,
            110.92,
            116.11,
            120.46,
            124.04,
            127.71,
            132.13,
            137.13,
            141.07,
            145.18,
            149.52,
            152.8,
            157.61,
            162.47,
            164.82,
            168.94,
            172.47,
            177.54,
            180.93,
            185.24,
            189.38,
            192.64,
            197.63,
            201.62,
            205.58,
            210.55,
            213.09,
            217.32,
            222.43,
            225.83,
            229.35,
            233.72,
            237.98,
            241.27,
            244.35,
            252.45,
            257.59,
            262.73,
            266.77,
            270.63,
            273.82,
            278.91,
            282.38,
            287.31,
            288.92,
            293.81,
            297.87,
            302.9,
            306.32,
            310.48,
            314.76,
            319.67,
            322.85,
            326.25,
            328.88,
            334.69,
            338.64,
            342.8,
            347.97,
            350.47,
            355.29,
            358.57,
            361.98,
            365.38,
            369.63,
            373.7,
            377.63,
            380.09,
            383.5,
            387.59,
            393.47,
            398.73,
            402.05,
            405.25,
            411.75,
            416.69,
            421.68,
            426.61,
            429.95,
            433.28,
            437.34,
            439.82,
            444.76,
            448.79,
            452.97,
            457.12,
            461.19,
            465.38,
            470.31,
            473.49,
            480.07,
            485.06,
            489.97,
            493.27,
            497.43,
            499.92,
            508.89,
            512.94,
            517.04,
            520.22,
            525.18,
            528.63,
            532.88,
            537.84,
            540.28,
            548.49,
            552.51,
            556.62,
            559.14,
            562.5,
            566.57,
            571.38,
            574.68,
            580.55,
            585.51,
            588.72,
            594.45,
            598.61,
            604.36,
            606.76,
            611.63,
            615.71,
            619.89,
            625.71,
            629.03,
            632.36,
            637.26,
            638.83,
            643.72,
            647.9,
            652.08,
            660.27,
            663.54,
            667.62,
            671.72,
            676.66,
            683.23,
            687.23,
            695.42,
            697.97,
            708.63,
            719.31,
            726.67,
            729.9,
            734.83,
            739.01,
            742.31,
            745.54,
            750.51,
            754.6,
            761.13,
            767.7,
            775.09,
            784.93,
            794.76,
            807.03,
            812.79,
            816.96,
            823.57,
            829.31,
            832.55,
            835.85,
            840.76,
            843.99,
            847.26,
            851.4,
            855.52,
            860.36,
            865.25,
            868.58,
            875.14,
            879.19,
            883.3,
            886.63,
            889.97,
            896.53,
            903.08,
            908.82,
            916.22,
            922.77,
            929.34,
            932.63,
            937.49,
            942.42,
            945.76,
            949.08,
            954.0,
            958.06,
            970.37,
            975.29,
            978.56,
            981.87
          ],
          [
            6.63,
            9.33,
            12.79,
            16.21,
            19.76,
            23.48,
            28.14,
            32.84,
            36.56,
            40.17,
            46.63,
            49.98,
            54.82,
            58.65,
            61.03,
            65.02,
            69.58,
            73.42,
            77.74,
            82.73,
            89.85,
            95.04,
            99.48,
            103.53,
            106.67,
            110.92,
            116.11,
            120.46,
            124.04,
            127.71,
            132.13,
            137.13,
            141.07,
            145.18,
            149.52,
            152.8,
            157.61,
            162.47,
            164.82,
            168.94,
            172.47,
            177.54,
            180.93,
            185.24,
            189.38,
            192.64,
            197.63,
            201.62,
            205.58,
            210.55,
            213.09,
            217.32,
            222.43,
            225.83,
            229.35,
            233.72,
            237.98,
            241.27,
            244.35,
            252.45,
            257.59,
            262.73,
            266.77,
            270.63,
            273.82,
            278.91,
            282.38,
            287.31,
            288.92,
            293.81,
            297.87,
            302.9,
            306.32,
            310.48,
            314.76,
            319.67,
            322.85,
            326.25,
            328.88,
            334.69,
            338.64,
            342.8,
            347.97,
            350.47,
            355.29,
            358.57,
            361.98,
            365.38,
            369.63,
            373.7,
            377.63,
            380.09,
            383.5,
            387.59,
            393.47,
            398.73,
            402.05,
            405.25,
            411.75,
            416.69,
            421.68,
            426.61,
            429.95,
            433.28,
            437.34,
            439.82,
            444.76,
            448.79,
            452.97,
            457.12,
            461.19,
            465.38,
            470.31,
            473.49,
            480.07,
            485.06,
            489.97,
            493.27,
            497.43,
            499.92,
            508.89,
            512.94,
            517.04,
            520.22,
            525.18,
            528.63,
            532.88,
            537.84,
            540.28,
            548.49,
            552.51,
            556.62,
            559.14,
            562.5,
            566.57,
            571.38,
            574.68,
            580.55,
            585.51,
            588.72,
            594.45,
            598.61,
            604.36,
            606.76,
            611.63,
            615.71,
            619.89,
            625.71,
            629.03,
            632.36,
            637.26,
            638.83,
            643.72,
            647.9,
            652.08,
            660.27,
            663.54,
            667.62,
            671.72,
            676.66,
            683.23,
            687.23,
            695.42,
            697.97,
            708.63,
            719.31,
            726.67,
            729.9,
            734.83,
            739.01,
            742.31,
            745.54,
            750.51,
            754.6,
            761.13,
            767.7,
            775.09,
            784.93,
            794.76,
            807.03,
            812.79,
            816.96,
            823.57,
            829.31,
            832.55,
            835.85,
            840.76,
            843.99,
            847.26,
            851.4,
            855.52,
            860.36,
            865.25,
            868.58,
            875.14,
            879.19,
            883.3,
            886.63,
            889.97,
            896.53,
            903.08,
            908.82,
            916.22,
            922.77,
            929.34,
            932.63,
            937.49,
            942.42,
            945.76,
            949.08,
            954.0,
            958.06,
            970.37,
            975.29,
            978.56,
            981.87,
            988.44
          ],
          [
            44.15,
            84.27,
            125.99,
            175.72,
            221.86,
            254.36,
            276.42,
            289.67,
            308.53,
            343.85,
            377.54,
            359.51,
            366.75,
            371.57,
            404.47,
            498.73,
            536.44,
            551.29,
            572.96,
            519.63,
            447.07,
            441.08,
            408.61,
            393.78,
            415.86,
            413.06,
            395.43,
            375.79,
            359.76,
            333.31,
            303.25,
            290.42,
            291.64,
            311.7,
            290.88,
            278.05,
            290.89,
            294.52,
            298.94,
            309.38,
            296.56,
            275.73,
            274.13,
            260.11,
            245.69,
            254.13,
            247.72,
            246.13,
            262.99,
            265.01,
            258.2,
            252.6,
            239.38,
            226.97,
            220.16,
            195.31,
            181.29,
            173.28,
            179.7,
            202.58,
            193.38,
            172.55,
            161.33,
            180.59,
            195.85,
            193.05,
            172.22,
            167.41,
            170.23,
            171.85,
            175.07,
            177.5,
            159.86,
            157.87,
            152.66,
            131.83,
            153.1,
            147.89,
            135.88,
            121.85,
            128.69,
            141.54,
            119.9,
            107.47,
            114.31,
            120.74,
            115.13,
            103.12,
            97.51,
            83.09,
            100.75,
            107.18,
            101.57,
            88.75,
            103.21,
            70.34,
            54.31,
            64.75,
            66.77,
            72.41,
            64.8,
            62.41,
            63.63,
            54.01,
            56.43,
            60.05,
            52.45,
            58.48,
            61.7,
            48.88,
            55.31,
            51.71,
            43.71,
            51.74,
            56.17,
            48.98,
            47.38,
            49.81,
            44.2,
            41.81,
            39.42,
            50.67,
            45.88,
            52.3,
            58.73,
            47.12,
            34.3,
            26.29,
            29.51,
            27.12,
            31.56,
            36.38,
            31.18,
            27.18,
            21.98,
            30.82,
            36.04,
            28.84,
            18.84,
            22.86,
            28.48,
            24.49,
            20.5,
            24.12,
            27.34,
            32.57,
            29.78,
            22.18,
            18.18,
            15.79,
            12.99,
            17.01,
            24.64,
            21.45,
            12.64,
            11.06,
            13.08,
            13.9,
            15.92,
            14.33,
            11.94,
            14.36,
            25.62,
            16.01,
            13.22,
            15.27,
            12.89,
            17.72,
            20.14,
            16.95,
            8.94,
            13.76,
            15.38,
            8.98,
            16.22,
            13.03,
            14.66,
            12.28,
            14.72,
            13.95,
            19.6,
            12.4,
            8.41,
            6.02,
            9.24,
            11.26,
            7.26,
            11.69,
            15.71,
            12.91,
            8.52,
            11.74,
            19.38,
            17.38,
            12.19,
            16.62,
            19.44,
            16.24,
            12.24,
            9.45,
            11.08,
            11.9,
            11.12,
            9.54,
            11.97,
            7.98,
            12.0,
            16.03,
            10.43,
            7.63,
            6.44,
            7.66,
            10.49,
            7.72,
            10.54,
            8.54,
            7.36
          ]
        ]
      }
    },
    "003": {
      "reaction": {
        "0": {
          "x4_code": "(37-RB-97(0,B-)38-SR-97,,PN/DE,,REL)",
          "0": {
            "code": [
              "37-RB-97",
              [
                "0,B-"
              ],
              "38-SR-97,,PN/DE,,REL"
            ],
            "type": null,
            "target": "37-RB-97",
            "process": "0,B-",
            "sf49": "38-SR-97,,PN/DE,,REL",
            "sf4": "38-SR-97",
            "sf5": null,
            "sf6": "PN/DE",
            "sf7": null,
            "sf8": "REL",
            "sf9": null
          },
          "type": null,
          "free_text": "Relative intensity of beta-delayed neutrons"
        }
      },
      "extra_information": {
        "decay-data": {
          "0": [
            {
              "x4_code": "(37-RB-97,176.MSEC)",
              "free_txt": []
            }
          ]
        },
        "en-sec": {
          "0": [
            {
              "x4_code": "(E,N)",
              "free_txt": [
                " Delayed neutron energy"
              ]
            }
          ]
        },
        "err-analys": {
          "0": [
            {
              "x4_code": null,
              "free_txt": [
                " Quantization errors (one pixel):",
                " scale X (energy) - 2.12 keV,",
                " scale Y (data) - 27.1 arb.units ."
              ]
            }
          ]
        },
        "rel-ref": {
          "0": [
            {
              "x4_code": "(A,23242005,K.-L.Kratz+,P,MAINZ-76,37,1977)",
              "free_txt": []
            }
          ]
        },
        "status": {
          "0": [
            {
              "x4_code": "(CURVE)",
              "free_txt": [
                " Fig.16b of P,MAINZ-78,27,1979"
              ]
            }
          ]
        }
      },
      "common": {
        "heads": [
          "EN-ERR-DIG",
          "ERR-DIG"
        ],
        "units": [
          "KEV",
          "ARB-UNITS"
        ],
        "data": [
          [
            3.32
          ],
          [
            19.6
          ]
        ]
      },
      "data": {
        "heads": [
          "E-MIN",
          "E-MAX",
          "DATA"
        ],
        "units": [
          "KEV",
          "KEV",
          "ARB-UNITS"
        ],
        "data": [
          [
            8.87,
            12.14,
            16.58,
            22.05,
            26.37,
            30.66,
            36.01,
            46.61,
            56.14,
