{
  "entry": "13774",
  "last_updated": "2017-05-04",
  "number_of_revisions": "4",
  "histories": [
    {
      "x4_code": "(20010926C)",
      "free_txt": []
    },
    {
      "x4_code": "(20160729U)",
      "free_txt": [
        " OS. Author name corrected."
      ]
    }
  ],
  "bib_record": {
    "title": "Neutron capture and absorption of 59Ni for thermal and resonance-energy neutrons",
    "authors": [
      {
        "name": "S.Raman"
      },
      {
        "name": "E.T.Jurney"
      },
      {
        "name": "J.A.Harvey"
      },
      {
        "name": "N.W.Hill"
      }
    ],
    "institutes": [
      {
        "x4_code": "(1USAORL)",
        "free_txt": []
      }
    ],
    "references": [
      {
        "x4_code": "(P,ORNL-5025,110,197505)",
        "free_txt": [],
        "publication_year": "1975",
        "pointer": "0"
      }
    ],
    "facilities": [
      {
        "x4_code": "(LINAC,1USAORL)",
        "free_txt": [
          " ORELA"
        ],
        "pointer": "0",
        "facility_type": "(LINAC)",
        "institute": "(1USAORL)"
      }
    ]
  },
  "reactions": {
    "002": {
      "0": {
        "x4_code": "(28-NI-59(N,TOT),,SIG)",
        "children": [
          {
            "code": [
              "28-NI-59",
              [
                "N,TOT"
              ],
              ",,SIG"
            ],
            "type": null,
            "target": "28-NI-59",
            "process": "N,TOT",
            "sf49": ",,SIG",
            "sf4": null,
            "sf5": null,
            "sf6": "SIG",
            "sf7": null,
            "sf8": null,
            "sf9": null
          }
        ],
        "type": null,
        "free_text": " Run ID: 8180"
      }
    },
    "003": {
      "0": {
        "x4_code": "(28-NI-59(N,TOT),,SIG)",
        "children": [
          {
            "code": [
              "28-NI-59",
              [
                "N,TOT"
              ],
              ",,SIG"
            ],
            "type": null,
            "target": "28-NI-59",
            "process": "N,TOT",
            "sf49": ",,SIG",
            "sf4": null,
            "sf5": null,
            "sf6": "SIG",
            "sf7": null,
            "sf8": null,
            "sf9": null
          }
        ],
        "type": null,
        "free_text": " Run ID: 8231."
      }
    },
    "004": {
      "0": {
        "x4_code": "(28-NI-59(N,TOT),,SIG)",
        "children": [
          {
            "code": [
              "28-NI-59",
              [
                "N,TOT"
              ],
              ",,SIG"
            ],
            "type": null,
            "target": "28-NI-59",
            "process": "N,TOT",
            "sf49": ",,SIG",
            "sf4": null,
            "sf5": null,
            "sf6": "SIG",
            "sf7": null,
            "sf8": null,
            "sf9": null
          }
        ],
        "type": null,
        "free_text": " Run ID: 8165"
      }
    }
  },
  "data_tables": {
    "001": {
      "common": null
    },
    "002": {
      "common": null,
      "data": {
        "heads": [
          "EN",
          "DATA",
          "DATA-ERR"
        ],
        "units": [
          "EV",
          "B",
          "B"
        ],
        "data": [
          [
            148170.0,
            138130.0,
            129070.0,
            120880.0,
            113440.0,
            106670.0,
            100480.0,
            94824.0,
            89629.0,
            84849.0,
            80441.0,
            76369.0,
            72598.0,
            69100.0,
            65848.0,
            62821.0,
            59998.0,
            57361.0,
            54894.0,
            52583.0,
            50415.0,
            48378.0,
            46462.0,
            44658.0,
            42957.0,
            41351.0,
            39834.0,
            38398.0,
            37039.0,
            35751.0,
            34529.0,
            33368.0,
            32265.0,
            31216.0,
            30217.0,
            29266.0,
            28358.0,
            27492.0,
            26666.0,
            25876.0,
            25120.0,
            24397.0,
            23705.0,
            23064.0,
            22741.0,
            22699.0,
            22657.0,
            22615.0,
            22573.0,
            22531.0,
            22489.0,
            22447.0,
            22406.0,
            22364.0,
            22323.0,
            22282.0,
            22241.0,
            22200.0,
            22159.0,
            22118.0,
            22077.0,
            22037.0,
            21996.0,
            21956.0,
            21916.0,
            21876.0,
            21836.0,
            21796.0,
            21756.0,
            21717.0,
            21677.0,
            21638.0,
            21598.0,
            21559.0,
            21520.0,
            21481.0,
            21442.0,
            21403.0,
            21365.0,
            21326.0,
            21288.0,
            21249.0,
            21211.0,
            21173.0,
            21135.0,
            21097.0,
            21059.0,
            21021.0,
            20984.0,
            20946.0,
            20909.0,
            20871.0,
            20834.0,
            20797.0,
            20760.0,
            20723.0,
            20686.0,
            20649.0,
            20613.0,
            20576.0,
            20539.0,
            20503.0,
            20467.0,
            20431.0,
            20395.0,
            20359.0,
            20323.0,
            20287.0,
            20251.0,
            20216.0,
            20180.0,
            20145.0,
            20109.0,
            20074.0,
            20039.0,
            20004.0,
            19969.0,
            19934.0,
            19899.0,
            19865.0,
            19830.0,
            19796.0,
            19761.0,
            19727.0,
            19693.0,
            19659.0,
            19624.0,
            19590.0,
            19557.0,
            19523.0,
            19489.0,
            19456.0,
            19422.0,
            19389.0,
            19125.0,
            18643.0,
            18180.0,
            17733.0,
            17303.0,
            16888.0,
            16488.0,
            16102.0,
            15730.0,
            15370.0,
            15022.0,
            14687.0,
            14362.0,
            14048.0,
            13744.0,
            13450.0,
            13165.0,
            12889.0,
            12622.0,
            12362.0,
            12111.0,
            11868.0,
            11631.0,
            11402.0,
            11179.0,
            10963.0,
            10753.0,
            10549.0,
            10351.0,
            10159.0,
            9971.1,
            9788.9,
            9693.6,
            9681.8,
            9670.0,
            9658.3,
            9646.5,
            9634.8,
            9623.1,
            9611.5,
            9599.8,
            9588.2,
            9576.6,
            9565.0,
            9553.4,
            9541.9,
            9530.4,
            9518.9,
            9507.4,
            9495.9,
            9484.5,
            9473.1,
            9461.7,
            9450.3,
            9439.0,
            9427.6,
            9416.3,
            9405.0,
            9393.8,
            9382.5,
            9371.3,
            9360.1,
            9348.9,
            9337.7,
            9326.5,
            9315.4,
            9304.3,
            9293.2,
            9282.1,
            9271.1,
            9260.0,
            9249.0,
            9238.0,
            9227.1,
            9216.1,
            9205.2,
            9194.3,
            9183.4,
            9172.5,
            9161.6,
            9150.8,
            9140.0,
            9129.2,
            9118.4,
            9107.6,
            9096.9,
            9086.2,
            9075.5,
            9064.8,
            9054.1,
            9043.5,
            9032.8,
            9022.2,
            9011.6,
            9001.0,
            8990.5,
            8980.0,
            8969.4,
            8958.9,
            8948.5,
            8938.0,
            8927.6,
            8917.1,
            8906.7,
            8896.3,
            8886.0,
            8875.6,
            8865.3,
            8855.0,
            8844.7,
            8834.4,
            8824.1,
            8813.9,
            8803.6,
            8793.4,
            8783.2,
            8773.1,
            8762.9,
            8752.8,
            8742.6,
            8732.5,
            8722.5,
            8642.6,
            8495.4,
            8351.9,
            8212.1,
            8075.7,
            7942.7,
            7813.0,
            7686.4,
            7562.8,
            7442.3,
            7324.5,
            7209.6,
            7097.3,
            7038.4,
            7031.1,
            7023.8,
            7016.6,
            7009.3,
            7002.0,
            6994.8,
            6987.6,
            6980.3,
            6973.1,
            6965.9,
            6958.7,
            6951.6,
            6944.4,
            6937.3,
            6930.1,
            6923.0,
            6915.9,
            6908.7,
            6901.7,
            6894.6,
            6887.5,
            6880.4,
            6873.4,
            6866.3,
            6859.3,
            6852.3,
            6845.3,
            6838.3,
            6831.3,
            6824.3,
            6817.3,
            6810.4,
            6803.4,
            6796.5,
            6789.6,
            6782.6,
            6775.7,
            6768.8,
            6762.0,
            6755.1,
            6748.2,
            6741.4,
            6734.5,
            6727.7,
            6720.9,
            6714.1,
            6707.3,
            6700.5,
            6693.7,
            6686.9,
            6680.2,
            6673.4,
            6666.7,
            6659.9,
            6653.2,
            6646.5,
            6639.8,
            6633.1,
            6626.5,
            6619.8,
            6613.1,
            6606.5,
            6599.8,
            6593.2,
            6586.6,
            6580.0,
            6573.4,
            6566.8,
            6560.2,
            6553.7,
            6547.1,
            6540.6,
            6534.0,
            6527.5,
            6521.0,
            6514.5,
            6508.0,
            6501.5,
            6495.0,
            6488.5,
            6482.1,
            6475.6,
            6469.2,
            6462.7,
            6456.3,
            6449.9,
            6443.5,
            6437.1,
            6430.7,
            6424.3,
            6418.0,
            6411.6,
            6405.3,
            6398.9,
            6392.6,
            6386.3,
            6380.0,
            6373.7,
            6367.4,
            6361.1,
            6354.8,
            6348.6,
            6342.3,
            6336.1,
            6329.8,
            6323.6,
            6317.4,
            6311.2,
            6305.0,
            6298.8,
            6292.6,
            6286.5,
            6280.3,
            6274.1,
            6268.0,
            6261.9,
            6255.7,
            6249.6,
            6243.5,
            6237.4,
            6231.3,
            6225.3,
            6219.2,
            6213.1,
            6207.1,
            6201.0,
            6195.0,
            6189.0,
            6182.9,
            6176.9,
            6170.9,
            6164.9,
            6159.0,
            6153.0,
            6147.0,
            6141.1,
            6135.1,
            6129.2,
            6123.2,
            6117.3,
            6111.4,
            6105.5,
            6099.6,
            6093.7,
            6087.8,
            6082.0,
            6076.1,
            6070.2,
            6064.4,
            6058.5,
            6052.7,
            6046.9,
            6041.1,
            6035.3,
            6029.5,
            6023.7,
            6017.9,
            6012.1,
            6006.4,
            6000.6,
            5994.9,
            5989.1,
            5983.4,
            5977.7,
            5972.0,
            5966.3,
            5960.6,
            5954.9,
            5949.2,
            5943.5,
            5937.9,
            5932.2,
            5926.6,
            5920.9,
            5915.3,
            5909.7,
            5904.1,
            5898.5,
            5892.9,
            5887.3,
            5881.7,
            5876.1,
            5870.5,
            5865.0,
            5859.4,
            5853.9,
            5848.3,
            5842.8,
            5837.3,
            5831.8,
            5826.3,
            5820.8,
            5815.3,
            5809.8,
            5804.3,
            5798.9,
            5793.4,
            5787.9,
            5782.5,
            5777.1,
            5771.6,
            5766.2,
            5760.8,
            5755.4,
            5750.0,
            5744.6,
            5739.2,
            5733.9,
            5728.5,
            5723.1,
            5717.8,
            5712.4,
            5707.1,
            5701.8,
            5696.4,
            5691.1,
            5685.8,
            5680.5,
            5675.2,
            5669.9,
            5664.7,
            5659.4,
            5654.1,
            5612.4,
            5535.1,
            5459.5,
            5385.4,
            5312.8,
            5241.7,
            5172.0,
            5103.6,
            5036.7,
            4971.0,
            4906.6,
            4843.4,
            4781.5,
            4720.7,
            4682.8,
            4667.0,
            4651.2,
            4635.6,
            4620.0,
            4604.5,
            4589.1,
            4573.7,
            4558.5,
            4543.3,
            4528.2,
            4513.1,
            4498.1,
            4483.3,
            4468.4,
            4453.7,
            4439.0,
            4424.4,
            4409.9,
            4395.4,
            4381.1,
            4366.7,
            4352.5,
            4338.3,
            4324.2,
            4310.2,
            4296.2,
            4282.3,
            4268.5,
            4254.7,
            4241.0,
            4227.4,
            4213.8,
            4200.3,
            4186.9,
            4173.5,
            4160.2,
            4147.0,
            4133.8,
            4120.7,
            4107.6,
            4094.6,
            4081.7,
            4068.8,
            4056.0,
            4043.2,
            4030.5,
            4017.9,
            4005.3,
            3997.5,
            3994.4,
            3991.3,
            3988.1,
            3985.0,
            3981.9,
            3978.8,
            3975.7,
            3972.6,
            3969.5,
            3966.4,
            3963.3,
            3960.2,
            3957.2,
            3954.1,
            3951.0,
            3947.9,
            3944.9,
            3941.8,
            3938.8,
            3935.7,
            3932.6,
            3929.6,
            3926.5,
            3923.5,
            3920.5,
            3917.4,
            3914.4,
            3890.3,
            3845.7,
            3801.8,
            3758.7,
            3716.3,
            3674.6,
            3633.6,
            3593.3,
            3553.7,
            3514.7,
            3476.3,
            3438.6,
            3401.5,
            3365.0,
            3329.0,
            3293.7,
            3275.0,
            3272.7,
            3270.4,
            3268.1,
            3265.8,
            3263.5,
            3261.2,
            3258.9,
            3256.6,
            3254.3,
            3252.0,
            3249.7,
            3247.4,
            3245.1,
            3242.8,
            3240.5,
            3238.3,
            3236.0,
            3233.7,
            3231.4,
            3229.2,
            3226.9,
            3224.6,
            3222.4,
            3220.1,
            3217.8,
            3215.6,
            3213.3,
            3211.1,
            3208.8,
            3206.6,
            3204.3,
            3202.1,
            3199.8,
            3197.6,
            3195.4,
            3193.1,
            3190.9,
            3188.7,
            3186.5,
            3184.2,
            3182.0,
            3179.8,
            3177.6,
            3175.4,
            3173.1,
            3170.9,
            3168.7,
            3166.5,
            3164.3,
            3162.1,
            3159.9,
            3157.7,
            3155.5,
            3153.3,
            3151.2,
            3149.0,
            3146.8,
            3144.6,
            3142.4,
            3140.2,
            3138.1,
            3135.9,
            3133.7,
            3131.5,
            3129.4,
            3127.2,
            3125.1,
            3122.9,
            3120.7,
            3118.6,
            3116.4,
            3104.6,
            3083.3,
            3062.3,
            3041.4,
            3020.8,
            3000.3,
            2980.1,
            2960.1,
            2940.3,
            2920.6,
            2901.2,
            2882.0,
            2862.9,
            2844.1,
            2825.4,
            2806.9,
            2788.6,
            2770.5,
            2752.5,
            2734.8,
            2717.2,
            2699.7,
            2682.4,
            2665.3,
            2648.4,
            2631.6,
            2615.0,
            2598.5,
            2582.2,
            2566.1,
            2550.1,
            2534.2,
            2518.5,
            2502.9,
            2487.5,
            2472.2,
            2457.1,
            2442.1,
            2427.2,
            2412.5,
            2397.9,
            2383.5,
            2369.1,
            2354.9,
            2340.9,
            2326.9,
            2313.1,
            2299.4,
            2285.8,
            2272.4,
            2259.0,
            2245.8,
            2232.7,
            2219.7,
            2206.8,
            2194.0,
            2181.4,
            2168.8,
            2156.4,
            2144.1,
            2134.9,
            2128.8,
            2122.7,
            2116.7,
            2110.7,
            2104.7,
            2098.7,
            2092.8,
            2086.9,
            2081.0,
            2075.1,
            2069.3,
            2063.5,
            2057.7,
            2052.0,
            2046.2,
            2040.5,
            2034.8,
            2029.1,
            2023.5,
            2017.9,
            2012.3,
            2008.9,
            2007.8,
            2006.7,
            2005.6,
            2004.5,
            2003.4,
            2002.3,
            2001.2,
            2000.1,
            1999.0,
            1997.9,
            1996.8,
            1995.6,
            1994.5,
            1993.4,
            1992.3,
            1991.2,
            1990.1,
            1989.0,
            1988.0,
            1986.9,
            1985.8,
            1984.7,
            1983.6,
            1982.5,
            1976.5,
            1965.7,
            1954.9,
            1944.3,
            1933.7,
            1923.2,
            1912.9,
            1902.5,
            1892.3,
            1882.2,
            1872.1,
            1862.1,
            1852.2,
            1842.4,
            1832.7,
            1823.0,
            1813.4,
            1803.9,
            1794.5,
            1785.1,
            1775.8,
            1766.6,
            1757.4,
            1748.3,
            1739.3,
            1730.4,
            1721.5,
            1712.0,
            1696.2,
            1679.0,
            1662.2,
            1645.5,
            1629.1,
            1613.0,
            1597.1,
            1581.4,
            1565.9,
            1550.7,
            1535.7,
            1520.9,
            1506.4,
            1492.0,
            1477.9,
            1463.9,
            1450.1,
            1436.6,
            1423.2,
            1410.0,
            1397.0,
