{
  "entry": "23750",
  "last_updated": "2023-03-31",
  "number_of_revisions": "1",
  "histories": [
    {
      "x4_code": "(20220624R)",
      "free_txt": [
        " On. Received by email from Guinyun Kim."
      ]
    },
    {
      "x4_code": "(20220624C)",
      "free_txt": [
        " On"
      ]
    }
  ],
  "bib_record": {
    "title": "Measurements of neutron capture cross-sections of 161Dy and 163Dy between 0.003 eV and 10 keV using a total energy absorption detector",
    "authors": [
      {
        "name": "G.N.Kim"
      },
      {
        "name": "Y.S.Lee"
      },
      {
        "name": "I.S.Ko"
      },
      {
        "name": "M.H.Cho"
      },
      {
        "name": "W.Namkung"
      },
      {
        "name": "T.I.Ro"
      },
      {
        "name": "Y.K.Min"
      },
      {
        "name": "S.Y.Lee"
      },
      {
        "name": "S.Yamamoto"
      },
      {
        "name": "K.Kobayashi"
      },
      {
        "name": "Y.Fujita"
      }
    ],
    "institutes": [
      {
        "x4_code": "(3KORKOR)",
        "free_txt": [
          " Dong-A University, Busan"
        ]
      },
      {
        "x4_code": "(3KORKNU)",
        "free_txt": ""
      },
      {
        "x4_code": "(3KORPUE)",
        "free_txt": ""
      },
      {
        "x4_code": "(2JPNKTO)",
        "free_txt": ""
      }
    ],
    "references": [
      {
        "x4_code": "(C,2002BRUSS,,613,2002)",
        "free_txt": [],
        "publication_year": "2002",
        "pointer": "0"
      },
      {
        "x4_code": "((S,ISINN-10,283,2003)=(S,JINR-E3-2003-10,2003))",
        "free_txt": [],
        "publication_year": "2003",
        "pointer": "0"
      }
    ],
    "facilities": [
      {
        "x4_code": "(LINAC,2JPNKTO)",
        "free_txt": [
          " KURRI 46 MeV electron linac"
        ],
        "pointer": "0",
        "facility_type": "(LINAC)",
        "institute": "(2JPNKTO)"
      }
    ]
  },
  "reactions": {
    "002": {
      "0": {
        "x4_code": "(66-DY-161(N,G)66-DY-162,,SIG,,TTA)",
        "children": [
          {
            "code": [
              "66-DY-161",
              [
                "N,G"
              ],
              "66-DY-162,,SIG,,TTA"
            ],
            "type": null,
            "target": "66-DY-161",
            "process": "N,G",
            "sf49": "66-DY-162,,SIG,,TTA",
            "sf4": "66-DY-162",
            "sf5": null,
            "sf6": "SIG",
            "sf7": null,
            "sf8": "TTA",
            "sf9": null
          }
        ],
        "type": null,
        "free_text": ""
      }
    },
    "003": {
      "0": {
        "x4_code": "(66-DY-161(N,G)66-DY-162,,SIG,,TTA)",
        "children": [
          {
            "code": [
              "66-DY-161",
              [
                "N,G"
              ],
              "66-DY-162,,SIG,,TTA"
            ],
            "type": null,
            "target": "66-DY-161",
            "process": "N,G",
            "sf49": "66-DY-162,,SIG,,TTA",
            "sf4": "66-DY-162",
            "sf5": null,
            "sf6": "SIG",
            "sf7": null,
            "sf8": "TTA",
            "sf9": null
          }
        ],
        "type": null,
        "free_text": ""
      }
    },
    "004": {
      "0": {
        "x4_code": "(66-DY-163(N,G)66-DY-164,,SIG,,TTA)",
        "children": [
          {
            "code": [
              "66-DY-163",
              [
                "N,G"
              ],
              "66-DY-164,,SIG,,TTA"
            ],
            "type": null,
            "target": "66-DY-163",
            "process": "N,G",
            "sf49": "66-DY-164,,SIG,,TTA",
            "sf4": "66-DY-164",
            "sf5": null,
            "sf6": "SIG",
            "sf7": null,
            "sf8": "TTA",
            "sf9": null
          }
        ],
        "type": null,
        "free_text": ""
      }
    },
    "005": {
      "0": {
        "x4_code": "(66-DY-163(N,G)66-DY-164,,SIG,,TTA)",
        "children": [
          {
            "code": [
              "66-DY-163",
              [
                "N,G"
              ],
              "66-DY-164,,SIG,,TTA"
            ],
            "type": null,
            "target": "66-DY-163",
            "process": "N,G",
            "sf49": "66-DY-164,,SIG,,TTA",
            "sf4": "66-DY-164",
            "sf5": null,
            "sf6": "SIG",
            "sf7": null,
            "sf8": "TTA",
            "sf9": null
          }
        ],
        "type": null,
        "free_text": ""
      }
    }
  },
  "data_tables": {
    "001": {
      "common": null
    },
    "002": {
      "common": {
        "heads": [
          "THICKNESS"
        ],
        "units": [
          "ATOMS/B"
        ],
        "data": [
          [
            0.000636
          ]
        ]
      },
      "data": {
        "heads": [
          "EN",
          "DATA"
        ],
        "units": [
          "EV",
          "B"
        ],
        "data": [
          [
            0.00317,
            0.00323,
            0.00329,
            0.00335,
            0.00341,
            0.00347,
            0.00353,
            0.0036,
            0.00366,
            0.00373,
            0.0038,
            0.00387,
            0.00394,
            0.00401,
            0.00409,
            0.00416,
            0.00424,
            0.00432,
            0.00439,
            0.00448,
            0.00456,
            0.00464,
            0.00473,
            0.00481,
            0.0049,
            0.00499,
            0.00508,
            0.00518,
            0.00527,
            0.00537,
            0.00547,
            0.00557,
            0.00567,
            0.00577,
            0.00588,
            0.00599,
            0.0061,
            0.00621,
            0.00632,
            0.00644,
            0.00656,
            0.00668,
            0.0068,
            0.00692,
            0.00705,
            0.00718,
            0.00731,
            0.00745,
            0.00758,
            0.00772,
            0.00786,
            0.00801,
            0.00815,
            0.0083,
            0.00846,
            0.00861,
            0.00877,
            0.00893,
            0.00909,
            0.00926,
            0.00943,
            0.0096,
            0.00978,
            0.00996,
            0.01014,
            0.01033,
            0.01052,
            0.01071,
            0.01091,
            0.01111,
            0.01131,
            0.01152,
            0.01173,
            0.01195,
            0.01217,
            0.01239,
            0.01262,
            0.01285,
            0.01308,
            0.01332,
            0.01357,
            0.01382,
            0.01407,
            0.01433,
            0.01459,
            0.01486,
            0.01513,
            0.01541,
            0.01569,
            0.01598,
            0.01627,
            0.01657,
            0.01688,
            0.01719,
            0.0175,
            0.01782,
            0.01815,
            0.01848,
            0.01882,
            0.01917,
            0.01952,
            0.01988,
            0.02024,
            0.02061,
            0.02099,
            0.02138,
            0.02177,
            0.02217,
            0.02257,
            0.02299,
            0.02341,
            0.02384,
            0.02428,
            0.02472,
            0.0253,
            0.02564,
            0.02611,
            0.02659,
            0.02708,
            0.02757,
            0.02808,
            0.02859,
            0.02912,
            0.02965,
            0.0302,
            0.03075,
            0.03131,
            0.03189,
            0.03247,
            0.03307,
            0.03368,
            0.03429,
            0.03492,
            0.03556,
            0.03622,
            0.03688,
            0.03756,
            0.03825,
            0.03895,
            0.03966,
            0.04039,
            0.04113,
            0.04189,
            0.04266,
            0.04344,
            0.04424,
            0.04505,
            0.04587,
            0.04672,
            0.04757,
            0.04845,
            0.04933,
            0.05024,
            0.05116,
            0.0521,
            0.05306,
            0.05403,
            0.05502,
            0.05603,
            0.05706,
            0.0581,
            0.05917,
            0.06026,
            0.06136,
            0.06249,
            0.06363,
            0.0648,
            0.06599,
            0.0672,
            0.06844,
            0.06969,
            0.07097,
            0.07227,
            0.0736,
            0.07495,
            0.07632,
            0.07772,
            0.07915,
            0.0806,
            0.08208,
            0.08359,
            0.08512,
            0.08668,
            0.08827,
            0.08989,
            0.09154,
            0.09322,
            0.09493,
            0.09667,
            0.09845,
            0.10025,
            0.10209,
            0.10397,
            0.10587,
            0.10782,
            0.10979,
            0.11181,
            0.11386,
            0.11595,
            0.11808,
            0.12024,
            0.12245,
            0.1247,
            0.12698,
            0.12931,
            0.13169,
            0.1341,
            0.13656,
            0.13907,
            0.14162,
            0.14422,
            0.14687,
            0.14956,
            0.1523,
            0.1551,
            0.15795,
            0.16084,
            0.16379,
            0.1668,
            0.16986,
            0.17298,
            0.17615,
            0.17938,
            0.18267,
            0.18603,
            0.18944,
            0.19291,
            0.19645,
            0.20006,
            0.20373,
            0.20747,
            0.21127,
            0.21515,
            0.2191,
            0.22312,
            0.22721,
            0.23138,
            0.23563,
            0.23995,
            0.24435,
            0.24884,
            0.2534,
            0.25805,
            0.26279,
            0.26761,
            0.27252,
            0.27752,
            0.28261,
            0.2878,
            0.29308,
            0.29845,
            0.30393,
            0.30951,
            0.31518,
            0.32097,
            0.32686,
            0.33285,
            0.33896,
            0.34518,
            0.35151,
            0.35796,
            0.36453,
            0.37122,
            0.37803,
            0.38497,
            0.39203,
            0.39922,
            0.40655,
            0.41401,
            0.4216,
            0.42934,
            0.43722,
            0.44524,
            0.45341,
            0.46173,
            0.4702,
            0.47883,
            0.48761,
            0.49656,
            0.50567,
            0.51495,
            0.5244,
            0.53402,
            0.54382,
            0.55379,
            0.56396,
            0.5743,
            0.58484,
            0.59557,
            0.6065,
            0.61763,
            0.62896,
            0.6405,
            0.65225,
            0.66422,
            0.67641,
            0.68882,
            0.70146,
            0.71433,
            0.72743,
            0.74078,
            0.75437,
            0.76821,
            0.78231,
            0.79666,
            0.81128,
            0.82616,
            0.84132,
            0.85676,
            0.87248,
            0.88849,
            0.90479,
            0.92139,
            0.9383,
            0.95551,
            0.97305,
            0.9909,
            1.0091,
            1.0276,
            1.0465,
            1.0657,
            1.0852,
            1.1051,
            1.1254,
            1.146,
            1.1671,
            1.1885,
            1.2103,
            1.2325,
            1.2551,
            1.2781,
            1.3016,
            1.3255,
            1.3498,
            1.3746,
            1.3998,
            1.4255,
            1.4516,
            1.4783,
            1.5054,
            1.533,
            1.5611,
            1.5898,
            1.6189,
            1.6486,
            1.6789,
            1.7097,
            1.7411,
            1.773,
            1.8055,
            1.8387,
            1.8724,
            1.9068,
            1.9417,
            1.9774,
            2.0137,
            2.0506,
            2.0882,
            2.1265,
            2.1656,
            2.2053,
            2.2458,
            2.287,
            2.3289,
            2.3717,
            2.4152,
            2.4595,
            2.5046,
            2.5506,
            2.5974,
            2.645,
            2.6935,
            2.743,
            2.7933,
            2.8445,
            2.8967,
            2.9499,
            3.004,
            3.0591,
            3.1153,
            3.1724,
            3.2306,
            3.2899,
            3.3503,
            3.4117,
            3.4743,
            3.5381,
            3.603,
            3.6691,
            3.7364,
            3.805,
            3.8748,
            3.9459,
            4.0183,
            4.092,
            4.1671,
            4.2436,
            4.3214,
            4.4007,
            4.4815,
            4.5637,
            4.6474,
            4.7327,
            4.8195,
            4.908,
            4.998,
            5.0897,
            5.1831,
            5.2782,
            5.375,
            5.4737,
            5.5741,
            5.6764,
            5.7805,
            5.8866,
            5.9946,
            6.1046,
            6.2166,
            6.3307,
            6.4468,
            6.5651,
            6.6856,
            6.8082,
            6.9331,
            7.0603,
            7.1899,
            7.3218,
            7.4562,
            7.593,
            7.7323,
            7.8741,
            8.0186,
            8.1657,
            8.3156,
            8.4682,
            8.6235,
            8.7818,
            8.9429,
            9.107,
            9.2741,
            9.4442,
            9.6175,
            9.794,
            9.9737
          ],
          [
            1644.5339,
            1743.0481,
            1767.2221,
            1713.5034,
            1595.7068,
            1556.5284,
            1587.5242,
            1653.6025,
            1646.5534,
            1677.3677,
            1412.5867,
            1513.4746,
            1656.5646,
            1503.3599,
            1558.7712,
            1543.7338,
            1600.6863,
            1504.0403,
            1516.1743,
            1502.9448,
            1398.2606,
            1623.8089,
            1474.148,
            1513.6213,
            1490.2234,
            1403.2493,
            1366.964,
            1334.7901,
            1389.6566,
            1353.1715,
            1412.2743,
            1358.4764,
            1280.3652,
            1308.2081,
            1365.7564,
            1312.509,
            1278.3199,
            1313.9612,
            1268.125,
            1259.3314,
            1272.4574,
            1246.7999,
            1252.0988,
            1247.8906,
            1210.0609,
            1210.9452,
            1201.946,
            1163.9959,
            1190.0163,
            1178.862,
            1176.7223,
            1149.7283,
            1168.39,
            1122.0004,
            1097.5979,
            1143.1182,
            1087.7262,
            1060.6317,
            1080.4155,
            1046.5556,
            1048.9855,
            1066.1812,
            1052.5748,
            1033.7408,
            1060.2998,
            1016.0385,
            994.0042,
            1004.5201,
            965.9603,
            959.6121,
            960.631,
            931.1497,
            926.0808,
            945.2283,
            921.2775,
            930.6681,
            907.0753,
            914.1046,
            894.6386,
            902.5306,
            883.0931,
            871.4446,
            855.9858,
            852.9978,
            836.7951,
            824.8145,
            826.947,
            829.5009,
            817.3119,
            815.9052,
            810.6402,
            794.0013,
            783.8473,
            787.3514,
            770.2529,
            760.3903,
            769.3902,
            750.2366,
            744.1219,
            737.9206,
            735.4598,
            722.0778,
            713.6186,
            704.8274,
            709.1118,
            705.1553,
            688.6733,
            693.005,
            676.7024,
            674.9272,
            663.5753,
            659.8645,
            659.9476,
            648.1666,
            644.6024,
            635.4955,
            630.9337,
            621.1833,
            618.7012,
            608.5156,
            605.8013,
            604.6869,
            597.581,
            596.8304,
            586.7118,
            578.9943,
            579.7993,
            569.8517,
            563.0932,
            557.5807,
            553.595,
            548.3996,
            547.7524,
            535.3471,
            531.5809,
            530.5638,
            527.6177,
            520.6618,
            514.9659,
            507.7342,
            509.7734,
            502.1196,
            495.3718,
            491.9669,
            488.8267,
            481.51,
            477.3154,
            473.581,
            468.7399,
            461.9819,
            460.7901,
            459.6123,
            453.3451,
            446.1389,
            447.6936,
            438.8004,
            434.2707,
            434.4691,
            427.0412,
            424.5126,
            421.3116,
            421.6208,
            412.3259,
            407.8212,
            402.8974,
            399.2255,
            395.2251,
            390.6538,
            391.5104,
            384.0888,
            378.1897,
            373.8811,
            371.7253,
            368.9782,
            364.9758,
            359.0863,
            355.3366,
            354.6878,
            349.858,
            343.1962,
            343.4004,
            337.0355,
            336.7753,
            333.8332,
            331.219,
            321.5386,
            321.4064,
            316.5499,
            313.6822,
            306.7958,
            309.748,
            301.9851,
            297.8715,
            296.083,
            291.7661,
            291.1706,
            287.5054,
            285.5249,
            282.2027,
            280.2016,
            278.1601,
            268.7408,
            266.5192,
            268.5191,
            258.6601,
            256.1404,
            254.856,
            252.0831,
            249.0535,
            249.5312,
            242.4338,
            241.92,
            238.3842,
            237.517,
            229.982,
            233.0711,
            225.3678,
            222.1773,
            219.4138,
            218.78,
            215.9376,
            208.4725,
            204.8748,
            209.21,
            205.0293,
            200.5764,
            192.2359,
            191.9312,
            196.325,
            188.7773,
            181.9034,
            185.5608,
            187.936,
            180.6528,
            183.2951,
            176.559,
            173.2008,
            161.6507,
            176.8176,
            173.3941,
            158.6518,
            159.9299,
            150.4098,
            149.5082,
            153.2187,
            149.8486,
            155.4131,
            152.4298,
            145.8539,
            139.0814,
            142.4966,
            138.3635,
            135.4578,
            133.0055,
            131.5973,
            131.4342,
            139.4219,
            132.2894,
            125.7688,
            120.5924,
            123.7029,
            109.6568,
            120.7486,
