{
  "entry": "10520",
  "last_updated": "2023-05-23",
  "number_of_revisions": "4",
  "histories": [
    {
      "x4_code": "(19750624C)",
      "free_txt": []
    },
    {
      "x4_code": "(19830824A)",
      "free_txt": [
        " Converted to REACTION formalism"
      ]
    },
    {
      "x4_code": "(20040427A)",
      "free_txt": [
        " Updated to new date formats, lower case."
      ]
    }
  ],
  "bib_record": {
    "title": "Neutron resonance spectroscopy: 177Hf",
    "authors": [
      {
        "name": "H.I.Liou"
      },
      {
        "name": "J.Rainwater"
      },
      {
        "name": "G.Hacken"
      },
      {
        "name": "U.N.Singh"
      }
    ],
    "institutes": [
      {
        "x4_code": "(1USACOL)",
        "free_txt": []
      }
    ],
    "references": [
      {
        "x4_code": "(J,PR/C,11,2022,197506)",
        "free_txt": [],
        "publication_year": "1975",
        "doi": null,
        "pointer": "0"
      }
    ],
    "facilities": [
      {
        "x4_code": "(SYNCH,1USACOL)",
        "free_txt": [
          " Nevis synchrocyclotron"
        ],
        "pointer": "0",
        "facility_type": "(SYNCH)",
        "institute": "(1USACOL)"
      }
    ]
  },
  "reactions": {
    "002": {
      "1": {
        "x4_code": "(72-HF-177(N,0),,EN)",
        "children": [
          {
            "code": [
              "72-HF-177",
              [
                "N,0"
              ],
              ",,EN"
            ],
            "type": null,
            "target": "72-HF-177",
            "process": "N,0",
            "sf49": ",,EN",
            "sf4": null,
            "sf5": null,
            "sf6": "EN",
            "sf7": null,
            "sf8": null,
            "sf9": null
          }
        ],
        "type": null,
        "free_text": "",
        "pointer": "1"
      },
      "2": {
        "x4_code": "(72-HF-177(N,EL),,WID/RED,,G)",
        "children": [
          {
            "code": [
              "72-HF-177",
              [
                "N,EL"
              ],
              ",,WID/RED,,G"
            ],
            "type": null,
            "target": "72-HF-177",
            "process": "N,EL",
            "sf49": ",,WID/RED,,G",
            "sf4": null,
            "sf5": null,
            "sf6": "WID/RED",
            "sf7": null,
            "sf8": "G",
            "sf9": null
          }
        ],
        "type": null,
        "free_text": "",
        "pointer": "2"
      },
      "3": {
        "x4_code": "(72-HF-177(N,G),,WID)",
        "children": [
          {
            "code": [
              "72-HF-177",
              [
                "N,G"
              ],
              ",,WID"
            ],
            "type": null,
            "target": "72-HF-177",
            "process": "N,G",
            "sf49": ",,WID",
            "sf4": null,
            "sf5": null,
            "sf6": "WID",
            "sf7": null,
            "sf8": null,
            "sf9": null
          }
        ],
        "type": null,
        "free_text": "",
        "pointer": "3"
      }
    },
    "004": {
      "1": {
        "x4_code": "(72-HF-178(N,0),,EN)",
        "children": [
          {
            "code": [
              "72-HF-178",
              [
                "N,0"
              ],
              ",,EN"
            ],
            "type": null,
            "target": "72-HF-178",
            "process": "N,0",
            "sf49": ",,EN",
            "sf4": null,
            "sf5": null,
            "sf6": "EN",
            "sf7": null,
            "sf8": null,
            "sf9": null
          }
        ],
        "type": null,
        "free_text": "",
        "pointer": "1"
      },
      "2": {
        "x4_code": "(72-HF-178(N,EL),,WID/RED)",
        "children": [
          {
            "code": [
              "72-HF-178",
              [
                "N,EL"
              ],
              ",,WID/RED"
            ],
            "type": null,
            "target": "72-HF-178",
            "process": "N,EL",
            "sf49": ",,WID/RED",
            "sf4": null,
            "sf5": null,
            "sf6": "WID/RED",
            "sf7": null,
            "sf8": null,
            "sf9": null
          }
        ],
        "type": null,
        "free_text": "",
        "pointer": "2"
      }
    },
    "005": {
      "0": {
        "x4_code": "(72-HF-177(N,EL),,STF)",
        "children": [
          {
            "code": [
              "72-HF-177",
              [
                "N,EL"
              ],
              ",,STF"
            ],
            "type": null,
            "target": "72-HF-177",
            "process": "N,EL",
            "sf49": ",,STF",
            "sf4": null,
            "sf5": null,
            "sf6": "STF",
            "sf7": null,
            "sf8": null,
            "sf9": null
          }
        ],
        "type": null,
        "free_text": "",
        "pointer": "0"
      }
    },
    "006": {
      "0": {
        "x4_code": "(72-HF-177(N,0),,D)",
        "children": [
          {
            "code": [
              "72-HF-177",
              [
                "N,0"
              ],
              ",,D"
            ],
            "type": null,
            "target": "72-HF-177",
            "process": "N,0",
            "sf49": ",,D",
            "sf4": null,
            "sf5": null,
            "sf6": "D",
            "sf7": null,
            "sf8": null,
            "sf9": null
          }
        ],
        "type": null,
        "free_text": "",
        "pointer": "0"
      }
    },
    "007": {
      "0": {
        "x4_code": "(72-HF-178(N,EL),,STF)",
        "children": [
          {
            "code": [
              "72-HF-178",
              [
                "N,EL"
              ],
              ",,STF"
            ],
            "type": null,
            "target": "72-HF-178",
            "process": "N,EL",
            "sf49": ",,STF",
            "sf4": null,
            "sf5": null,
            "sf6": "STF",
            "sf7": null,
            "sf8": null,
            "sf9": null
          }
        ],
        "type": null,
        "free_text": "",
        "pointer": "0"
      }
    },
    "008": {
      "0": {
        "x4_code": "(72-HF-177(N,TOT),,SIG)",
        "children": [
          {
            "code": [
              "72-HF-177",
              [
                "N,TOT"
              ],
              ",,SIG"
            ],
            "type": null,
            "target": "72-HF-177",
            "process": "N,TOT",
            "sf49": ",,SIG",
            "sf4": null,
            "sf5": null,
            "sf6": "SIG",
            "sf7": null,
            "sf8": null,
            "sf9": null
          }
        ],
        "type": null,
        "free_text": "",
        "pointer": "0"
      }
    }
  },
  "data_tables": {
    "001": {
      "common": null
    },
    "002": {
      "common": {
        "heads": [
          "MOMENTUM L"
        ],
        "units": [
          "NO-DIM"
        ],
        "data": [
          [
            0.0
          ]
        ]
      },
      "data": {
        "heads": [
          "DATA      1",
          "DATA-ERR  1",
          "DATA      2",
          "DATA-ERR  2",
          "DATA      3",
          "DATA-ERR  3"
        ],
        "units": [
          "EV",
          "EV",
          "MILLI-EV",
          "MILLI-EV",
          "MILLI-EV",
          "MILLI-EV"
        ],
        "data": [
          [
            1.098,
            2.38,
            5.894,
            6.572,
            8.868,
            10.95,
            13.67,
            13.94,
            21.95,
            22.23,
            23.41,
            25.62,
            26.99,
            31.61,
            32.77,
            36.08,
            36.94,
            43.03,
            45.09,
            46.18,
            48.76,
            49.56,
            54.71,
            56.29,
            57.0,
            59.21,
            62.15,
            63.42,
            66.69,
            69.96,
            71.29,
            72.22,
            75.41,
            75.99,
            82.33,
            84.56,
            85.25,
            86.73,
            88.51,
            93.13,
            97.01,
            98.98,
            103.07,
            111.5,
            111.96,
            115.03,
            121.17,
            122.72,
            123.68,
            126.17,
            131.59,
            134.0,
            136.15,
            137.42,
            141.12,
            143.15,
            143.71,
            145.53,
            148.52,
            151.15,
            152.86,
            155.94,
            159.97,
            162.98,
            167.28,
            171.03,
            174.18,
            176.11,
            176.7,
            178.89,
            180.94,
            184.54,
            188.01,
            192.66,
            194.0,
            199.14,
            201.79,
            205.65,
            208.64,
            209.98,
            212.05,
            217.03,
            219.51,
            222.26,
            223.3,
            224.67,
            226.56,
            229.08,
            232.2,
            236.16,
            238.64,
            240.71,
            248.74,
            259.65,
            264.48,
            267.57,
            272.22,
            273.16,
            284.69,
            287.85,
            294.19,
            298.47,
            302.37,
            306.96,
            310.92,
            313.6,
            319.85,
            323.6,
            327.46,
            330.38,
            333.4,
            341.79,
            348.74,
            354.74,
            357.08,
            362.33,
            367.45,
            370.67,
            375.55,
            389.84,
            393.63,
            398.82,
            406.15,
            408.8,
            412.88,
            414.9,
            418.8,
            426.09,
            429.18,
            431.7,
            433.56,
            434.92,
            435.91,
            443.4,
            446.57,
            449.43,
            453.81,
            457.36,
            466.58,
            470.77,
            472.17,
            474.99,
            478.7,
            481.58,
            488.6,
            498.51,
            507.15,
            512.19,
            520.71,
            523.02,
            525.46,
            533.2,
            539.1,
            541.3,
            548.63,
            557.22,
            573.74,
            577.4,
            581.92,
            591.1,
            596.92,
            598.97,
            604.66,
            610.4,
            612.52,
            618.92,
            625.54,
            628.7,
            633.16,
            640.59,
            646.4,
            653.89,
            657.8,
            669.15,
            676.47,
            684.7,
            693.11,
            696.63
          ],
          [
            0.02,
            0.004,
            0.016,
            0.017,
            0.019,
            0.02,
            0.02,
            0.02,
            0.03,
            0.02,
            0.02,
            0.03,
            0.03,
            0.03,
            0.04,
            0.04,
            0.04,
            0.04,
            0.05,
            0.05,
            0.05,
            0.03,
            0.04,
            0.05,
            0.05,
            0.05,
            0.06,
            0.07,
            0.08,
            0.08,
            0.08,
            0.08,
            0.08,
            0.08,
            0.06,
            0.06,
            0.11,
            0.06,
            0.06,
            0.07,
            0.07,
            0.07,
            0.07,
            0.13,
            0.13,
            0.09,
            0.09,
            0.1,
            0.1,
            0.1,
            0.11,
            0.11,
            0.12,
            0.12,
            0.12,
            0.19,
            0.19,
            0.13,
            0.13,
            0.13,
            0.2,
            0.14,
            0.15,
            0.15,
            0.15,
            0.16,
            0.13,
            0.13,
            0.13,
            0.17,
            0.14,
            0.18,
            0.18,
            0.19,
            0.19,
            0.16,
            0.2,
            0.21,
            0.17,
            0.21,
            0.22,
            0.23,
            0.23,
            0.23,
            0.24,
            0.24,
            0.24,
            0.24,
            0.25,
            0.26,
            0.26,
            0.26,
            0.27,
            0.29,
            0.3,
            0.31,
            0.31,
            0.32,
            0.34,
            0.34,
            0.35,
            0.36,
            0.37,
            0.3,
            0.38,
            0.39,
            0.4,
            0.41,
            0.42,
            0.42,
            0.43,
            0.44,
            0.46,
            0.47,
            0.47,
            0.48,
            0.5,
            0.5,
            0.51,
            0.54,
            0.55,
            0.56,
            0.57,
            0.58,
            0.59,
            0.59,
            0.6,
            0.62,
            0.62,
            0.49,
            0.5,
            0.5,
            0.5,
            0.51,
            0.52,
            0.53,
            0.68,
            0.54,
            0.71,
            0.56,
            0.56,
            0.57,
            0.58,
            0.74,
            0.6,
            0.61,
            0.63,
            0.64,
            0.65,
            0.66,
            0.66,
            0.86,
            0.87,
            0.88,
            0.71,
            0.92,
            0.76,
            0.76,
            0.98,
            1.01,
            1.02,
            1.03,
            0.81,
            1.06,
            1.06,
            1.08,
            0.86,
            0.87,
            1.11,
            0.89,
            0.9,
            0.92,
            0.92,
            1.21,
            1.23,
            0.98,
            1.0,
            1.01
          ],
          [
            null,
            null,
            0.87,
            1.7,
            1.1,
            0.073,
            0.092,
            0.37,
            0.23,
            0.085,
            0.18,
            0.041,
            0.26,
            0.027,
            0.14,
            0.25,
            0.89,
            0.43,
            0.29,
            0.59,
            2.6,
            0.4,
            1.07,
            0.8,
            0.29,
            0.22,
            0.099,
            4.4,
            2.7,
            0.043,
            0.98,
            0.13,
            0.078,
            1.1,
            0.045,
            1.6,
            0.12,
            0.056,
            0.2,
            0.26,
            1.1,
            0.052,
            2.7,
            0.12,
            0.25,
            0.24,
            0.21,
            0.07,
            0.52,
            0.054,
            2.3,
            0.2,
            0.032,
            0.8,
            1.1,
            0.18,
            0.71,
            0.3,
            0.75,
            0.023,
            0.071,
            0.1,
            0.17,
            1.5,
            0.28,
            0.51,
            0.68,
            1.7,
            2.1,
            0.028,
            0.25,
            0.048,
            0.024,
            0.35,
            0.28,
            0.89,
            0.68,
            0.054,
            1.7,
            0.12,
            0.058,
            0.24,
            0.36,
            0.074,
            0.12,
            4.5,
            0.45,
            0.22,
            0.039,
            0.36,
            1.4,
            0.84,
            0.72,
            0.06,
            2.2,
            1.3,
            1.8,
            0.45,
            5.3,
            0.31,
            0.12,
            2.1,
            0.09,
            3.3,
            0.24,
            0.45,
            0.84,
            1.2,
            3.2,
            4.3,
            1.2,
            0.97,
            2.5,
            0.33,
            1.2,
            0.35,
            1.6,
            0.88,
            7.7,
            0.71,
            0.17,
            0.27,
            2.0,
            0.37,
            0.84,
            2.7,
            0.68,
            2.2,
            1.0,
            0.96,
            1.4,
            1.4,
            1.5,
            1.2,
            1.6,
            0.66,
            0.14,
            4.0,
            0.19,
            0.88,
            1.5,
            2.3,
            1.5,
            0.33,
            4.8,
            1.3,
            1.6,
            1.5,
            0.61,
            1.4,
            3.1,
            0.27,
            0.22,
            0.15,
            2.9,
            0.29,
            1.3,
            3.2,
            1.1,
            0.37,
            0.32,
            0.24,
            2.4,
            0.73,
            1.1,
            0.52,
            1.2,
            3.4,
            0.13,
            1.7,
            2.8,
            1.6,
            0.97,
            0.89,
            1.4,
            3.2,
            2.8,
            2.6
          ],
          [
            null,
            null,
            0.12,
            0.2,
            0.1,
            0.009,
            0.014,
            0.05,
            0.04,
            0.015,
            0.02,
            0.006,
            0.03,
            0.005,
            0.01,
            0.03,
            0.08,
            0.03,
            0.02,
            0.05,
            0.3,
            0.04,
            0.08,
            0.09,
            0.04,
            0.03,
            0.019,
            0.4,
            0.4,
            0.011,
            0.09,
            0.02,
            0.023,
            0.1,
            0.011,
            0.1,
            0.03,
            0.013,
            0.03,
            0.03,
            0.1,
            0.015,
            0.3,
            0.03,
            0.05,
            0.03,
            0.03,
            0.018,
            0.05,
            0.013,
            0.2,
            0.03,
            0.01,
            0.09,
            0.1,
            0.04,
            0.13,
            0.03,
            0.07,
            0.009,
            0.018,
            0.03,
            0.03,
            0.2,
            0.05,
            0.09,
            0.08,
            0.3,
            0.4,
            0.008,
            0.03,
            0.015,
            0.015,
            0.06,
            0.04,
            0.09,
            0.11,
            0.028,
            0.2,
            0.03,
            0.021,
            0.04,
            0.05,
            0.04,
            0.07,
            0.7,
            0.07,
            0.04,
            0.013,
            0.07,
            0.3,
            0.13,
            0.1,
            0.02,
            0.3,
            0.2,
            0.4,
            0.15,
            0.8,
            0.06,
            0.03,
            0.3,
            0.03,
            0.5,
            0.06,
            0.11,
            0.11,
            0.2,
            0.5,
            0.7,
            0.2,
            0.16,
            0.4,
            0.09,
            0.2,
            0.07,
            0.3,
            0.16,
            1.3,
            0.15,
            0.05,
            0.07,
            0.3,
            0.1,
            0.3,
            0.5,
            0.15,
            0.4,
            0.2,
            0.19,
            0.3,
            0.3,
            0.4,
            0.2,
            0.4,
            0.14,
            0.08,
            0.6,
            0.09,
            0.28,
            0.4,
            0.5,
            0.3,
            0.11,
            0.7,
            0.4,
