{
  "bib": {
    "title": "Total Neutron Yield from the (alpha,n) Reaction on 21,22Ne",
    "authors": [
      {
        "name": "F.X.Haas"
      },
      {
        "name": "J.K.Bair"
      }
    ],
    "institutes": [
      {
        "x4_code": "(1USAMND)",
        "free_txt": ""
      },
      {
        "x4_code": "(1USAORL)",
        "free_txt": ""
      }
    ],
    "references": {
      "0": [
        {
          "x4_code": "(J,PR/C,7,2432,1973)",
          "free_txt": [],
          "publication_year": "1973",
          "doi": "10.1103/PhysRevC.7.2432"
        },
        {
          "x4_code": "(J,PR/C,10,961,1974)",
          "free_txt": [
            " Erratum.",
            "#doi:10.1103/PhysRevC.10.961"
          ],
          "publication_year": "1974"
        },
        {
          "x4_code": "(R,ORNL-4659(UC-34),38,1970)",
          "free_txt": [],
          "publication_year": "1970"
        }
      ]
    },
    "facility": {
      "0": [
        {
          "x4_code": "(VDG,1USAORL)",
          "free_txt": [],
          "facility_type": "(VDG)",
          "insitute": "(1USAORL)"
        }
      ]
    },
    "history": [
      {
        "x4_code": "(19990708C)",
        "free_txt": [
          " VM"
        ]
      },
      {
        "x4_code": "(20140128A)",
        "free_txt": [
          " BP: Added ORNL report data, doi, and",
          "erratum strength functions. Digitized data from the",
          "Figs. 1 and 2 using the report Figs. 5,6."
        ]
      }
    ]
  },
  "C0515-001": {
    "extra_information": {
      "detector": {
        "0": [
          {
            "x4_code": null,
            "free_txt": [
              "Graphite-sphere neutron detector."
            ]
          }
        ]
      },
      "facility": {
        "0": [
          {
            "x4_code": "(VDG,1USAORL)",
            "free_txt": []
          }
        ]
      }
    }
  },
  "C0515-002": {
    "reaction": {
      "0": {
        "x4_code": "(10-NE-21(A,N)12-MG-24,,SIG)",
        "0": {
          "code": [
            "10-NE-21",
            [
              "A,N"
            ],
            "12-MG-24,,SIG"
          ],
          "type": null,
          "target": "10-NE-21",
          "process": "A,N",
          "sf49": "12-MG-24,,SIG",
          "sf4": "12-MG-24",
          "sf5": null,
          "sf6": "SIG",
          "sf7": null,
          "sf8": null,
          "sf9": null
        },
        "type": null,
        "free_text": ""
      }
    },
    "extra_information": {
      "correction": {
        "0": [
          {
            "x4_code": null,
            "free_txt": [
              "Not corrected for variation in detector efficiency",
              "with neutron energy."
            ]
          }
        ]
      },
      "err-analys": {
        "0": [
          {
            "x4_code": "(DATA-ERR)",
            "free_txt": [
              " Exclusive of the detector efficiency",
              "correction, the error in the  cross sections is 12%",
              "for energies above about 1.7 MeV."
            ]
          }
        ]
      },
      "monitor": {
        "0": [
          {
            "x4_code": "(10-NE-21(A,N)12-MG-24,,SIG)",
            "free_txt": [
              " Absolute scale determined",
              "from measurements at 3-4 MeV on a gas target highly",
              "enriched in 21Ne."
            ]
          }
        ]
      },
      "sample": {
        "0": [
          {
            "x4_code": null,
            "free_txt": [
              "\"Drive-in\" target made by bombarding a tantalum blank",
              "with 25-keV 21Ne ions."
            ]
          }
        ]
      },
      "status": {
        "0": [
          {
            "x4_code": "(CURVE)",
            "free_txt": [
              " Fig. 5, page 43 of the ORNL report, or Fig. 1",
              "page 2432 in PR/C,7,2432,1973. Smooth curve."
            ]
          }
        ]
      }
    },
    "common": null,
    "data": {
      "heads": [
        "EN",
        "DATA",
        "DATA-ERR"
      ],
      "units": [
        "MEV",
        "MB",
        "MB"
      ],
      "data": [
        [
          1.97,
          1.983,
          2.0,
          2.009,
          2.024,
          2.039,
          2.048,
          2.057,
          2.068,
          2.076,
          2.087,
          2.098,
          2.109,
          2.122,
          2.131,
          2.144,
          2.155,
          2.166,
          2.177,
          2.186,
          2.196,
          2.205,
          2.214,
          2.225,
          2.238,
          2.244,
          2.247,
          2.249,
          2.249,
          2.249,
          2.251,
          2.253,
          2.253,
          2.255,
          2.257,
          2.257,
          2.259,
          2.259,
          2.259,
          2.259,
          2.259,
          2.259,
          2.26,
          2.261,
          2.266,
          2.274,
          2.278,
          2.28,
          2.28,
          2.28,
          2.282,
          2.285,
          2.285,
          2.285,
          2.289,
          2.289,
          2.291,
          2.293,
          2.293,
          2.295,
          2.3,
          2.302,
          2.306,
          2.308,
          2.316,
          2.323,
          2.331,
          2.342,
          2.352,
          2.359,
          2.369,
          2.377,
          2.39,
          2.398,
          2.407,
          2.419,
          2.428,
          2.44,
          2.451,
          2.459,
          2.47,
          2.476,
          2.48,
          2.486,
          2.493,
          2.503,
          2.516,
          2.524,
          2.528,
          2.535,
          2.545,
          2.554,
          2.562,
          2.573,
          2.579,
          2.585,
          2.593,
          2.604,
          2.608,
          2.614,
          2.614,
          2.619,
          2.621,
          2.621,
          2.627,
          2.635,
          2.635,
          2.637,
          2.64,
          2.644,
          2.652,
          2.661,
          2.665,
          2.665,
          2.665,
          2.667,
          2.671,
          2.673,
          2.681,
          2.69,
          2.694,
          2.7,
          2.707,
          2.713,
          2.723,
          2.725,
          2.727,
          2.734,
          2.738,
          2.74,
          2.742,
          2.742,
          2.746,
          2.755,
          2.759,
          2.763,
          2.767,
          2.771,
          2.776,
          2.782,
          2.788,
          2.795,
          2.797,
          2.799,
          2.801,
          2.801,
          2.801,
          2.801,
          2.801,
          2.801,
          2.803,
          2.803,
          2.803,
          2.803,
          2.803,
          2.803,
          2.803,
          2.805,
          2.805,
          2.805,
          2.807,
          2.807,
          2.807,
          2.809,
          2.809,
          2.809,
          2.811,
          2.813,
          2.813,
          2.813,
          2.817,
          2.817,
          2.817,
          2.819,
          2.819,
          2.819,
          2.819,
          2.823,
          2.823,
          2.825,
          2.829,
          2.829,
          2.833,
          2.838,
          2.844,
          2.848,
          2.85,
          2.85,
          2.85,
          2.855,
          2.857,
          2.857,
          2.857,
          2.857,
          2.859,
          2.859,
          2.859,
          2.859,
          2.859,
          2.859,
          2.859,
          2.859,
          2.859,
          2.859,
          2.859,
          2.861,
          2.863,
          2.863,
          2.863,
          2.865,
          2.866,
          2.866,
          2.866,
          2.866,
          2.868,
          2.868,
          2.87,
          2.87,
          2.872,
          2.872,
          2.874,
          2.874,
          2.876,
          2.876,
          2.879,
          2.879,
          2.881,
          2.885,
          2.893,
          2.895,
          2.895,
          2.895,
          2.895,
          2.897,
          2.897,
          2.899,
          2.899,
          2.899,
          2.901,
          2.903,
          2.903,
          2.905,
          2.906,
          2.907,
          2.91,
          2.91,
          2.912,
          2.914,
          2.92,
          2.926,
          2.931,
          2.931,
          2.931,
          2.933,
          2.933,
          2.935,
          2.935,
          2.935,
          2.937,
          2.937,
          2.937,
          2.937,
          2.937,
          2.939,
          2.939,
          2.941,
          2.948,
          2.956,
          2.956,
          2.958,
          2.96,
          2.96,
          2.96,
          2.962,
          2.962,
          2.962,
          2.964,
          2.964,
          2.966,
          2.968,
          2.968,
          2.968,
          2.968,
          2.97,
          2.97,
          2.97,
          2.97,
          2.97,
          2.97,
          2.972,
          2.972,
          2.972,
          2.972,
          2.972,
          2.974,
          2.974,
          2.974,
          2.976,
          2.976,
          2.978,
          2.978,
          2.978,
          2.98,
          2.98,
          2.98,
          2.98,
          2.98,
          2.98,
          2.982,
          2.982,
          2.982,
          2.982,
          2.982,
          2.984,
          2.986,
          2.99,
          2.99,
          2.99,
          2.99,
          2.99,
          2.99,
          2.99,
          2.99,
          2.99,
          2.99,
          2.99,
          2.99,
          2.99,
          2.99,
          2.99,
          2.992,
          2.992,
          2.992,
          2.992,
          2.992,
          2.992,
          2.994,
          2.998,
          2.998,
          3.002,
          3.011,
          3.011,
          3.013,
          3.013,
          3.013,
          3.013,
          3.013,
          3.015,
          3.015,
          3.015,
          3.015,
          3.015,
          3.015,
          3.015,
          3.015,
          3.017,
          3.017,
          3.02,
          3.02,
          3.02,
          3.022,
          3.022,
          3.022,
          3.022,
          3.022,
          3.024,
          3.024,
          3.024,
          3.024,
          3.026,
          3.026,
          3.028,
          3.028,
          3.028,
          3.028,
          3.028,
          3.029,
          3.029,
          3.029,
          3.031,
          3.031,
          3.031,
          3.033,
          3.033,
          3.033,
          3.035,
          3.037,
          3.041,
          3.041,
          3.048,
          3.048,
          3.05,
          3.05,
          3.05,
          3.05,
          3.05,
          3.052,
          3.054,
          3.054,
          3.054,
          3.054,
          3.056,
          3.056,
          3.059,
          3.059,
          3.059,
          3.059,
          3.059,
          3.063,
          3.063,
          3.065,
          3.067,
          3.067,
          3.069,
          3.071,
          3.074,
          3.078,
          3.084,
          3.09,
          3.097,
          3.102,
          3.111,
          3.118,
          3.123,
          3.129,
          3.134,
          3.143,
          3.148,
          3.153,
          3.157,
          3.164,
          3.164,
          3.167,
          3.171,
          3.173,
          3.178,
          3.182,
          3.187,
          3.192,
          3.197,
          3.203,
          3.208,
          3.215,
          3.217,
          3.221,
          3.224,
          3.228,
          3.233,
          3.237,
          3.241,
          3.242,
          3.244,
          3.246,
          3.248,
          3.252,
          3.254,
          3.259,
          3.261,
          3.267,
          3.273,
          3.277,
          3.281,
          3.281,
          3.283,
          3.285,
          3.285,
          3.285,
          3.285,
          3.285,
          3.286,
          3.291,
          3.296,
          3.298,
          3.302,
          3.302,
          3.302,
          3.302,
          3.302,
          3.305,
          3.308,
          3.311,
          3.315,
          3.318,
          3.322,
          3.323,
          3.327,
          3.327,
          3.329,
          3.331,
          3.334,
          3.335,
          3.336,
          3.336,
          3.337,
          3.339,
          3.339,
          3.342,
          3.342,
          3.342,
          3.342,
          3.342,
          3.343,
          3.347,
          3.347,
          3.347,
          3.349,
          3.352,
          3.352,
          3.355,
          3.355,
          3.355,
          3.358,
          3.36,
          3.36,
          3.361,
          3.362,
          3.363,
          3.365,
          3.369,
          3.372,
          3.373,
          3.377,
          3.378,
          3.38,
          3.38,
          3.381,
          3.381,
          3.384,
          3.386,
          3.388,
          3.393,
          3.398,
          3.404,
          3.405,
          3.409,
          3.415,
          3.418,
          3.419,
          3.422,
          3.428,
          3.434,
          3.44,
          3.444,
          3.45,
          3.456,
          3.458,
          3.459,
          3.459,
          3.459,
          3.459,
          3.46,
          3.462,
          3.464,
          3.466,
          3.468,
          3.471,
          3.472,
          3.474,
          3.477,
          3.477,
          3.479,
          3.481,
          3.485,
          3.489,
          3.492,
          3.496,
          3.5,
          3.506,
          3.511,
          3.516,
          3.519,
          3.523,
          3.528,
          3.533,
          3.536,
          3.539,
          3.542,
          3.548,
          3.553,
          3.558,
          3.562,
          3.567,
          3.569,
          3.572,
          3.574,
          3.574,
          3.575,
          3.578,
          3.579,
          3.581,
          3.584,
          3.587,
          3.589,
          3.591,
          3.592,
          3.593,
          3.595,
          3.595,
          3.598,
          3.602,
          3.605,
          3.61,
          3.612,
          3.617,
          3.618,
          3.62,
          3.624,
          3.63,
          3.633,
          3.637,
          3.643,
          3.648,
          3.65,
          3.654,
          3.656,
          3.661,
          3.664,
          3.665,
          3.666,
          3.668,
          3.67,
          3.672,
          3.674,
          3.674,
          3.675,
          3.679,
          3.681,
          3.681,
          3.686,
          3.686,
          3.691,
          3.691,
          3.693,
          3.694,
          3.694,
          3.698,
          3.699,
          3.702,
          3.702,
          3.706,
          3.706,
          3.71,
          3.71,
          3.711,
          3.715,
          3.715,
          3.718,
          3.718,
          3.719,
          3.724,
          3.727,
          3.729,
          3.735,
          3.741,
          3.746,
          3.752,
          3.758,
          3.761,
          3.766,
          3.768,
          3.771,
          3.771,
          3.772,
          3.772,
          3.772,
          3.772,
          3.775,
          3.777,
          3.777,
          3.777,
          3.778,
          3.778,
          3.779,
          3.779,
          3.784,
          3.787,
          3.791,
          3.793,
          3.797,
          3.797,
          3.799,
          3.8,
          3.802,
          3.802,
          3.804,
          3.809,
          3.809,
          3.81,
          3.81,
          3.81,
          3.814,
          3.814,
          3.816,
          3.818,
          3.821,
          3.822,
          3.825,
          3.828,
          3.83,
          3.835,
          3.839,
          3.843,
          3.847,
          3.849,
          3.852,
          3.852,
          3.855,
          3.86,
          3.866,
          3.868,
          3.871,
          3.873,
          3.877,
          3.883,
          3.887,
          3.89,
          3.892,
          3.893,
          3.896,
          3.9,
          3.904,
          3.908,
          3.908,
          3.908,
          3.91,
          3.914,
          3.914,
          3.917,
          3.917,
          3.92,
          3.92,
          3.922,
          3.924,
          3.924,
          3.924,
          3.928,
          3.931,
          3.935,
          3.939,
          3.942,
          3.946,
          3.952,
          3.958,
          3.962,
          3.967,
          3.97,
          3.974,
          3.979,
          3.984,
          3.987,
          3.989,
          3.989,
          3.991,
          3.993,
          3.996,
          3.996,
          3.999,
          3.999,
          3.999,
          4.003,
          4.003,
          4.004,
          4.005,
          4.006,
          4.008,
          4.011,
          4.014,
          4.016,
          4.02,
          4.025,
          4.03,
          4.036,
          4.04,
          4.041,
          4.043,
          4.045,
          4.045,
          4.045,
          4.046,
          4.046,
          4.046,
          4.047,
          4.048,
          4.048,
          4.049,
          4.049,
          4.053,
          4.053,
          4.053,
          4.054,
          4.054,
          4.055,
          4.058,
          4.058,
          4.058,
          4.059,
          4.059,
          4.061,
          4.061,
          4.061,
          4.062,
          4.062,
          4.064,
          4.068,
          4.073,
          4.078,
          4.079,
          4.08,
          4.081,
          4.081,
          4.081,
          4.083,
          4.083,
          4.083,
          4.083,
          4.083,
          4.083,
          4.084,
          4.084,
          4.085,
          4.085,
          4.086,
          4.086,
          4.086,
          4.086,
          4.089,
          4.09,
          4.091,
          4.091,
          4.091,
          4.091,
          4.093,
          4.093,
          4.095,
          4.095,
          4.096,
          4.098,
          4.098,
          4.099,
          4.099,
          4.102,
          4.103,
          4.103,
          4.103,
          4.104,
          4.104,
          4.104,
          4.104,
          4.105,
          4.106,
          4.11,
          4.111,
          4.111,
          4.114,
          4.116,
          4.12,
          4.123,
          4.127,
          4.13,
          4.136,
          4.14,
          4.143,
          4.147,
          4.148,
          4.151,
          4.152,
          4.153,
          4.153,
          4.154,
          4.155,
          4.156,
          4.156,
          4.156,
          4.158,
          4.158,
          4.159,
          4.159,
          4.159,
          4.16,
          4.164,
          4.167,
          4.171,
          4.173,
          4.175,
          4.178,
          4.178,
          4.18,
          4.183,
          4.186,
          4.192,
          4.193,
          4.196,
          4.197,
          4.198,
          4.202,
          4.202,
          4.202,
          4.203,
          4.203,
          4.206,
          4.21,
          4.214,
          4.216,
          4.22,
          4.227,
          4.234,
          4.241,
          4.247,
          4.251,
          4.255,
          4.256,
          4.26,
          4.26,
          4.261,
          4.262,
          4.264,
          4.268,
          4.272,
          4.273,
          4.277,
          4.278,
          4.281,
          4.286,
          4.289,
          4.293,
          4.297,
          4.301,
          4.304,
          4.31,
          4.315,
          4.317,
          4.323,
          4.328,
          4.335,
          4.341,
          4.343,
          4.346,
          4.347,
