{
  "bib": {
    "title": "Measurement Of The Neutron Total Cross Section Of Fluorine From 5 Ev To 20 Mev.",
    "authors": [
      {
        "name": "D.C.Larson"
      },
      {
        "name": "C.H.Johnson"
      },
      {
        "name": "J.A.Harvey"
      },
      {
        "name": "N.W.Hill"
      }
    ],
    "institutes": [
      {
        "x4_code": "(1USAORL)",
        "free_txt": []
      }
    ],
    "references": {
      "0": [
        {
          "x4_code": "(R,ORNL-TM-5612,197610)",
          "free_txt": [],
          "publication_year": "1976"
        }
      ]
    },
    "facility": {
      "0": [
        {
          "x4_code": "(LINAC,1USAORL)",
          "free_txt": [
            " ORELA"
          ],
          "facility_type": "(LINAC)",
          "insitute": "(1USAORL)"
        }
      ]
    },
    "history": [
      {
        "x4_code": "(19780823C)",
        "free_txt": []
      },
      {
        "x4_code": "(19801014A)",
        "free_txt": [
          " Reference update"
        ]
      },
      {
        "x4_code": "(20100714A)",
        "free_txt": [
          " VM:Updated to new date formats,lower case.",
          "            BIB updates."
        ]
      }
    ]
  },
  "10778-001": {
    "extra_information": {
      "correction": {
        "0": [
          {
            "x4_code": null,
            "free_txt": [
              "Data corrected for deadtime and background effects."
            ]
          }
        ]
      },
      "detector": {
        "0": [
          {
            "x4_code": "(GLASD)",
            "free_txt": [
              " 6Li glass detector for 80-m flight path."
            ]
          },
          {
            "x4_code": "(SCIN)",
            "free_txt": [
              "  Ne-110 detector for 200-m flight path."
            ]
          }
        ]
      },
      "facility": {
        "0": [
          {
            "x4_code": "(LINAC,1USAORL)",
            "free_txt": [
              " ORELA"
            ]
          }
        ]
      },
      "inc-source": {
        "0": [
          {
            "x4_code": "(EVAP)",
            "free_txt": [
              " Electrons on tantalum target."
            ]
          }
        ]
      },
      "method": {
        "0": [
          {
            "x4_code": "(TOF)",
            "free_txt": [
              " Time-of-flight. 80-m and 200-m flight paths."
            ]
          }
        ]
      },
      "sample": {
        "0": [
          {
            "x4_code": null,
            "free_txt": [
              "Sample thicknesses for various runs in atoms/b:",
              " E-min       E-max       F.P.(m) Thickness  Target",
              "     4.56 eV    25.99keV  80.     0.1309      Ta",
              "    26.15keV    28.32keV 200.     0.01639     Ta",
              "    28.47keV    45.15keV  80.     0.1309      Ta",
              "    45.53keV    53.19keV 200.     0.01689     Ta",
              "    53.37keV    81.88keV 200.     0.1309      Ta",
              "    82.70keV   107.8 keV 200.     0.01689     Ta",
              "   108.6 keV   309.2 keV 200.     0.1309      Be",
              "   309.3 keV   392.0 keV 200.     0.1309      Ta",
              "   393.7 keV  1270.0 keV 200.     0.1309      Be",
              "  1271.6 keV  1291.1 keV 200.     0.1309      Ta",
              "  1291.9 keV    21.8 MeV 200.     0.1309      Be"
            ]
          }
        ]
      },
      "status": {
        "0": [
          {
            "x4_code": "(APRVD)",
            "free_txt": [
              " Approved by D.C.Larson, 1978/10/5."
            ]
          }
        ]
      }
    }
  },
  "10778-002": {
    "reaction": {
      "0": {
        "x4_code": "(9-F-19(N,TOT),,SIG)",
        "0": {
          "code": [
            "9-F-19",
            [
              "N,TOT"
            ],
            ",,SIG"
          ],
          "type": null,
          "target": "9-F-19",
          "process": "N,TOT",
          "sf49": ",,SIG",
          "sf4": null,
          "sf5": null,
          "sf6": "SIG",
          "sf7": null,
          "sf8": null,
          "sf9": null
        },
        "type": null,
        "free_text": ""
      }
    },
    "extra_information": {
      "err-analys": {
        "0": [
          {
            "x4_code": "(ERR-S)",
            "free_txt": [
              " Data errors given are statistical errors only"
            ]
          },
          {
            "x4_code": "(ERR-SYS)",
            "free_txt": [
              " Estimated systematic uncertainty."
            ]
          }
        ]
      },
      "status": {
        "0": [
          {
            "x4_code": "(TABLE)",
            "free_txt": [
              " Data received on magnetic tape, D.C. Larson,",
              "        1976/6."
            ]
          }
        ]
      }
    },
    "common": {
      "heads": [
        "ERR-SYS"
      ],
      "units": [
        "PER-CENT"
      ],
      "data": [
        [
          3.0
        ]
      ]
    },
    "data": {
      "heads": [
        "EN",
        "DATA",
        "ERR-S"
      ],
      "units": [
        "KEV",
        "B",
        "B"
      ],
      "data": [
        [
          0.0045575,
          0.0049117,
          0.0053088,
          0.0057562,
          0.0062626,
          0.0068338,
          0.0071668,
          0.0073347,
          0.0075086,
          0.0076888,
          0.0078756,
          0.0080692,
          0.0082701,
          0.0084786,
          0.008695,
          0.0089198,
          0.0091535,
          0.0093965,
          0.0096493,
          0.0099124,
          0.010186,
          0.010472,
          0.01077,
          0.01108,
          0.011405,
          0.011743,
          0.012097,
          0.012468,
          0.012855,
          0.013261,
          0.013686,
          0.014133,
          0.014601,
          0.015093,
          0.01561,
          0.016155,
          0.016728,
          0.017333,
          0.017971,
          0.018644,
          0.019357,
          0.020111,
          0.02091,
          0.021757,
          0.022657,
          0.023614,
          0.024633,
          0.02572,
          0.02688,
          0.02812,
          0.029448,
          0.030873,
          0.032403,
          0.03405,
          0.035826,
          0.037745,
          0.039821,
          0.042075,
          0.044524,
          0.047195,
          0.050113,
          0.05331,
          0.056823,
          0.060695,
          0.064977,
          0.069729,
          0.075022,
          0.08094,
          0.087588,
          0.092228,
          0.094163,
          0.096159,
          0.09822,
          0.10035,
          0.10254,
          0.10482,
          0.10716,
          0.10959,
          0.1121,
          0.11469,
          0.11738,
          0.12017,
          0.12305,
          0.12604,
          0.12914,
          0.13235,
          0.13569,
          0.13916,
          0.14275,
          0.14649,
          0.15038,
          0.15443,
          0.15864,
          0.16303,
          0.1676,
          0.17236,
          0.17734,
          0.18253,
          0.18795,
          0.19361,
          0.19954,
          0.20574,
          0.21224,
          0.21905,
          0.22619,
          0.23369,
          0.24157,
          0.24985,
          0.25857,
          0.26775,
          0.27742,
          0.28764,
          0.29842,
          0.30983,
          0.3219,
          0.33469,
          0.34825,
          0.36266,
          0.37799,
          0.3943,
          0.4117,
          0.42965,
          0.44144,
          0.45159,
          0.46209,
          0.47296,
          0.48422,
          0.49588,
          0.50797,
          0.52051,
          0.53352,
          0.54702,
          0.56105,
          0.57561,
          0.59076,
          0.60651,
          0.62289,
          0.63995,
          0.65773,
          0.67625,
          0.69556,
          0.71572,
          0.73676,
          0.75875,
          0.78173,
          0.80577,
          0.83095,
          0.85732,
          0.88496,
          0.91397,
          0.94442,
          0.97642,
          1.0101,
          1.0455,
          1.0828,
          1.1222,
          1.1637,
          1.2076,
          1.2541,
          1.3032,
          1.3553,
          1.4106,
          1.4693,
          1.5308,
          1.5729,
          1.6069,
          1.6421,
          1.6785,
          1.7161,
          1.755,
          1.7952,
          1.8368,
          1.8799,
          1.9245,
          1.9707,
          2.0186,
          2.0682,
          2.1198,
          2.1732,
          2.2287,
          2.2864,
          2.3463,
          2.4087,
          2.4735,
          2.541,
          2.6113,
          2.6846,
          2.7609,
          2.8406,
          2.9238,
          3.0107,
          3.1015,
          3.1965,
          3.296,
          3.4001,
          3.5093,
          3.6238,
          3.744,
          3.8703,
          4.0031,
          4.1428,
          4.29,
          4.4452,
          4.6089,
          4.7819,
          4.9637,
          5.0944,
          5.1936,
          5.2957,
          5.4009,
          5.5092,
          5.6208,
          5.7358,
          5.8544,
          5.9767,
          6.1029,
          6.2331,
          6.3675,
          6.5064,
          6.6498,
          6.798,
          6.9512,
          7.1097,
          7.2736,
          7.4433,
          7.619,
          7.801,
          7.9896,
          8.1851,
          8.3879,
          8.5983,
          8.8167,
          9.0436,
          9.2793,
          9.5244,
          9.7792,
          10.045,
          10.321,
          10.608,
          10.908,
          11.221,
          11.548,
          11.889,
          12.245,
          12.618,
          13.008,
          13.416,
          13.843,
          14.168,
          14.398,
          14.633,
          14.874,
          15.121,
          15.374,
          15.633,
          15.899,
          16.172,
          16.452,
          16.74,
          17.035,
          17.337,
          17.648,
          17.968,
          18.296,
          18.633,
          18.98,
          19.336,
          19.703,
          20.08,
          20.375,
          20.582,
          20.793,
          21.007,
          21.224,
          21.444,
          21.668,
          21.896,
          22.127,
          22.361,
          22.6,
          22.842,
          23.088,
          23.339,
          23.593,
          23.851,
          24.114,
          24.381,
          24.653,
          24.846,
          24.957,
          25.069,
          25.181,
          25.295,
          25.409,
          25.524,
          25.64,
          25.757,
          25.874,
          25.992,
          26.151,
          26.198,
          26.245,
          26.293,
          26.34,
          26.388,
          26.436,
          26.484,
          26.532,
          26.58,
          26.628,
          26.677,
          26.708,
          26.723,
          26.737,
          26.752,
          26.767,
          26.781,
          26.796,
          26.81,
          26.825,
          26.84,
          26.855,
          26.869,
          26.884,
          26.899,
          26.913,
          26.928,
          26.943,
          26.958,
          26.973,
          26.987,
          27.002,
          27.017,
          27.032,
          27.047,
          27.062,
          27.076,
          27.091,
          27.106,
          27.121,
          27.136,
          27.151,
          27.166,
          27.181,
          27.196,
          27.211,
          27.226,
          27.241,
          27.256,
          27.271,
          27.286,
          27.301,
          27.316,
          27.331,
          27.346,
          27.361,
          27.377,
          27.392,
          27.407,
          27.422,
          27.437,
          27.452,
          27.468,
          27.483,
          27.516,
          27.567,
          27.618,
          27.669,
          27.72,
          27.772,
          27.823,
          27.875,
          27.927,
          27.979,
          28.031,
          28.11,
          28.215,
          28.321,
          28.469,
          28.605,
          28.742,
          28.881,
          29.02,
          29.161,
          29.302,
          29.445,
          29.588,
          29.842,
          30.21,
          30.585,
          30.967,
          31.356,
          31.752,
          32.157,
          32.568,
          32.988,
          33.416,
          33.853,
          34.298,
          34.752,
          35.215,
          35.687,
          36.169,
          36.66,
          37.162,
          37.674,
          38.197,
          38.73,
          39.275,
          39.832,
          40.286,
          40.631,
          40.981,
          41.335,
          41.694,
          42.058,
          42.427,
          42.8,
          43.179,
          43.562,
          43.951,
          44.344,
          44.743,
          45.148,
          45.529,
          45.638,
          45.746,
          45.856,
          45.965,
          46.075,
          46.185,
          46.296,
          46.407,
          46.519,
          46.631,
          46.743,
          46.856,
          46.969,
          47.083,
          47.197,
          47.311,
          47.426,
          47.489,
          47.512,
          47.547,
          47.581,
          47.616,
          47.651,
          47.686,
          47.72,
          47.755,
          47.79,
          47.825,
          47.86,
          47.895,
          47.93,
          47.965,
          48.0,
          48.035,
          48.071,
          48.106,
          48.141,
          48.176,
          48.212,
          48.247,
          48.283,
          48.318,
          48.354,
          48.389,
          48.425,
          48.46,
          48.496,
          48.532,
          48.567,
          48.603,
          48.639,
          48.675,
          48.711,
          48.747,
          48.783,
          48.819,
          48.855,
          48.891,
          48.927,
          48.963,
          48.999,
          49.036,
          49.072,
          49.108,
          49.145,
          49.181,
          49.218,
          49.254,
          49.291,
          49.327,
          49.364,
          49.4,
          49.437,
          49.474,
          49.511,
          49.548,
          49.584,
          49.621,
          49.658,
          49.695,
          49.732,
          49.769,
          49.806,
          49.844,
          49.881,
          49.918,
          49.955,
          49.993,
          50.03,
          50.067,
          50.105,
          50.142,
          50.18,
          50.217,
          50.255,
          50.293,
          50.33,
          50.368,
          50.406,
          50.444,
          50.482,
          50.52,
          50.558,
          50.596,
          50.634,
          50.672,
          50.754,
          50.882,
          51.01,
          51.139,
          51.268,
          51.397,
          51.527,
          51.658,
          51.789,
          51.92,
          52.052,
          52.185,
          52.318,
          52.451,
          52.585,
          52.72,
          52.923,
          53.195,
          53.373,
          53.649,
          53.926,
          54.206,
          54.489,
          54.773,
          55.06,
          55.348,
          55.64,
          55.933,
          56.229,
          56.527,
          56.828,
          57.131,
          57.744,
          58.682,
          59.644,
          60.629,
          61.639,
          62.674,
          63.736,
          64.825,
          65.783,
          66.369,
          66.944,
          67.526,
          68.116,
          68.714,
          69.32,
          69.934,
          70.556,
          71.186,
          71.825,
          72.472,
          73.128,
          73.794,
          74.468,
          75.152,
          75.845,
          76.547,
          77.26,
          77.982,
          78.715,
          79.333,
          79.834,
          80.338,
          80.848,
          81.362,
          81.882,
          82.697,
          83.363,
          84.037,
          84.719,
          85.41,
          86.109,
          86.817,
          87.534,
          88.259,
          88.994,
          89.738,
          90.491,
          91.254,
          92.026,
          92.808,
          93.6,
          94.403,
          95.216,
          96.039,
          96.873,
          97.718,
          98.574,
          99.441,
          100.32,
          101.21,
          102.11,
          103.03,
          103.95,
          104.89,
          105.85,
          106.81,
          107.79,
          108.57,
          109.17,
          109.77,
          110.38,
          111.0,
          111.72,
          112.56,
          113.4,
          114.26,
          115.12,
          116.0,
          116.88,
          117.78,
          118.68,
          119.6,
          120.53,
          121.46,
          122.37,
          122.99,
          123.59,
          124.2,
          124.81,
          125.42,
          126.04,
          126.67,
          127.3,
          127.93,
          128.57,
          129.22,
          129.87,
          130.52,
          131.18,
          131.84,
          132.51,
          133.19,
          133.87,
          134.55,
          135.24,
          135.94,
          136.64,
          137.34,
          138.05,
          138.77,
          139.49,
          140.22,
          140.95,
          141.69,
          142.44,
          143.19,
          143.95,
          144.71,
          145.48,
          146.26,
          147.04,
          147.83,
          148.62,
          149.42,
          150.23,
          151.04,
          151.86,
          152.69,
          153.52,
          154.37,
          155.21,
          156.07,
          156.93,
          157.8,
          158.68,
          159.56,
          160.45,
          161.35,
          162.25,
          163.17,
          164.09,
          165.02,
          165.96,
          166.9,
          167.86,
          168.82,
          169.79,
          170.76,
          171.75,
          172.75,
          173.75,
          174.76,
          175.78,
          176.82,
          177.85,
          178.9,
          179.96,
          181.03,
          182.11,
          183.19,
          184.29,
          185.4,
          186.51,
          187.64,
          188.78,
          189.92,
          191.08,
          192.25,
          193.43,
          194.62,
          195.82,
          197.03,
          198.25,
          199.49,
          200.73,
          201.99,
          203.26,
          204.54,
          205.58,
          206.36,
          207.14,
          207.93,
          208.73,
          209.53,
          210.33,
          211.14,
          211.95,
          212.77,
          213.59,
          214.42,
          215.25,
          216.09,
          216.93,
          217.77,
          218.63,
          219.48,
          220.34,
          221.21,
          222.08,
          222.96,
          223.84,
          224.73,
          225.62,
          226.52,
          227.42,
          228.33,
          229.25,
          230.16,
          231.09,
          232.02,
          232.96,
          233.9,
          234.85,
          235.8,
          236.76,
          237.73,
          238.7,
          239.67,
          240.66,
          241.65,
          242.64,
          243.64,
          244.65,
          245.66,
          246.69,
          247.71,
          248.74,
          249.78,
          250.83,
          251.88,
          252.94,
          254.01,
          255.08,
          256.16,
          257.25,
          258.07,
          258.62,
          259.17,
          259.72,
          260.27,
          260.83,
          261.38,
          261.94,
          262.5,
          263.07,
          263.54,
          263.91,
          264.29,
          264.67,
          265.05,
