{
  "bib": {
    "title": "Measurement Of The Neutron Total Cross Section Of Silicon From 5 Ev To 730 Kev.",
    "authors": [
      {
        "name": "D.C.Larson"
      },
      {
        "name": "C.H.Johnson"
      },
      {
        "name": "J.A.Harvey"
      },
      {
        "name": "N.W.Hill"
      }
    ],
    "institutes": [
      {
        "x4_code": "(1USAORL)",
        "free_txt": []
      }
    ],
    "references": {
      "0": [
        {
          "x4_code": "(R,ORNL-TM-5618,197611)",
          "free_txt": [],
          "publication_year": "1976"
        }
      ]
    },
    "facility": {
      "0": [
        {
          "x4_code": "(LINAC,1USAORL)",
          "free_txt": [
            " ORELA"
          ],
          "facility_type": "(LINAC)",
          "insitute": "(1USAORL)"
        }
      ]
    },
    "history": [
      {
        "x4_code": "(19780823C)",
        "free_txt": []
      },
      {
        "x4_code": "(20100714A)",
        "free_txt": [
          " VM:Updated to new date formats,lower case.",
          "            BIB update."
        ]
      }
    ]
  },
  "10779-001": {
    "extra_information": {
      "correction": {
        "0": [
          {
            "x4_code": null,
            "free_txt": [
              "Corrected for deadtime and background effects."
            ]
          }
        ]
      },
      "detector": {
        "0": [
          {
            "x4_code": "(GLASD)",
            "free_txt": [
              " 6Li glass detector for 80-m flight path."
            ]
          },
          {
            "x4_code": "(SCIN)",
            "free_txt": [
              " Ne-110 detector for 200-m flight path."
            ]
          }
        ]
      },
      "facility": {
        "0": [
          {
            "x4_code": "(LINAC,1USAORL)",
            "free_txt": [
              " ORELA"
            ]
          }
        ]
      },
      "inc-source": {
        "0": [
          {
            "x4_code": "(EVAP)",
            "free_txt": [
              " Electrons on tantalum target."
            ]
          }
        ]
      },
      "method": {
        "0": [
          {
            "x4_code": "(TOF)",
            "free_txt": [
              " Time-of-flight. 80-m and 200-m flight paths."
            ]
          }
        ]
      },
      "sample": {
        "0": [
          {
            "x4_code": null,
            "free_txt": [
              "Sample thicknesses used in atoms/b -",
              " E-min      E-max      F.P.(m) Thickness",
              "   5.12  eV  38.66 keV   80.    0.07462",
              "  38.73 keV  38.95 keV  200.    0.03762",
              "  38.96 keV  67.46 keV   80.    0.07462",
              "  67.54 keV 727.9  keV  200.    0.03762"
            ]
          }
        ]
      },
      "status": {
        "0": [
          {
            "x4_code": "(APRVD)",
            "free_txt": [
              " Approved by D.C.Larson, 1978/10/2."
            ]
          }
        ]
      }
    }
  },
  "10779-002": {
    "reaction": {
      "0": {
        "x4_code": "(14-SI-0(N,TOT),,SIG)",
        "0": {
          "code": [
            "14-SI-0",
            [
              "N,TOT"
            ],
            ",,SIG"
          ],
          "type": null,
          "target": "14-SI-0",
          "process": "N,TOT",
          "sf49": ",,SIG",
          "sf4": null,
          "sf5": null,
          "sf6": "SIG",
          "sf7": null,
          "sf8": null,
          "sf9": null
        },
        "type": null,
        "free_text": ""
      }
    },
    "extra_information": {
      "err-analys": {
        "0": [
          {
            "x4_code": "(ERR-S)",
            "free_txt": [
              " Data errors given are statistical errors only"
            ]
          },
          {
            "x4_code": "(ERR-SYS)",
            "free_txt": [
              " Estimated systematic uncertainty."
            ]
          }
        ]
      },
      "status": {
        "0": [
          {
            "x4_code": "(TABLE)",
            "free_txt": [
              " Data received on magnetic tape, D.C. Larson,",
              "        1976/6."
            ]
          }
        ]
      }
    },
    "common": {
      "heads": [
        "ERR-SYS"
      ],
      "units": [
        "PER-CENT"
      ],
      "data": [
        [
          3.0
        ]
      ]
    },
    "data": {
      "heads": [
        "EN",
        "DATA",
        "ERR-S"
      ],
      "units": [
        "KEV",
        "B",
        "B"
      ],
      "data": [
        [
          0.0051212,
          0.0055683,
          0.0060766,
          0.0066579,
          0.0071224,
          0.0073016,
          0.0074836,
          0.0076724,
          0.0078686,
          0.0080723,
          0.0082841,
          0.0085043,
          0.0087334,
          0.0089719,
          0.0092203,
          0.0094792,
          0.0097491,
          0.010031,
          0.010325,
          0.010632,
          0.010953,
          0.011289,
          0.01164,
          0.012008,
          0.012394,
          0.012799,
          0.013224,
          0.01367,
          0.01414,
          0.014634,
          0.015154,
          0.015703,
          0.016282,
          0.016894,
          0.017541,
          0.018225,
          0.018951,
          0.01972,
          0.020538,
          0.021408,
          0.022334,
          0.023321,
          0.024375,
          0.025503,
          0.02671,
          0.028006,
          0.029398,
          0.030896,
          0.032512,
          0.034258,
          0.036149,
          0.0382,
          0.040431,
          0.042864,
          0.045523,
          0.048437,
          0.051641,
          0.055173,
          0.05908,
          0.063417,
          0.06825,
          0.073658,
          0.079734,
          0.086595,
          0.092015,
          0.094091,
          0.096191,
          0.098363,
          0.10061,
          0.10293,
          0.10534,
          0.10783,
          0.11041,
          0.11309,
          0.11586,
          0.11873,
          0.12172,
          0.12482,
          0.12803,
          0.13138,
          0.13485,
          0.13847,
          0.14223,
          0.14615,
          0.15024,
          0.15449,
          0.15894,
          0.16357,
          0.16841,
          0.17347,
          0.17876,
          0.1843,
          0.1901,
          0.19617,
          0.20254,
          0.20923,
          0.21625,
          0.22364,
          0.2314,
          0.23958,
          0.24821,
          0.2573,
          0.26691,
          0.27706,
          0.2878,
          0.29918,
          0.31125,
          0.32406,
          0.33769,
          0.35219,
          0.36764,
          0.38413,
          0.40176,
          0.42063,
          0.43684,
          0.44744,
          0.45834,
          0.46966,
          0.48139,
          0.49358,
          0.50623,
          0.51937,
          0.53303,
          0.54724,
          0.56203,
          0.57742,
          0.59345,
          0.61016,
          0.62758,
          0.64577,
          0.66475,
          0.68458,
          0.70532,
          0.72701,
          0.74972,
          0.77351,
          0.79845,
          0.82461,
          0.85208,
          0.88095,
          0.91131,
          0.94327,
          0.97694,
          1.0124,
          1.0499,
          1.0895,
          1.1314,
          1.1757,
          1.2227,
          1.2726,
          1.3256,
          1.382,
          1.442,
          1.506,
          1.5608,
          1.5966,
          1.6333,
          1.6713,
          1.7107,
          1.7515,
          1.7937,
          1.8375,
          1.8829,
          1.93,
          1.9789,
          2.0297,
          2.0824,
          2.1373,
          2.1943,
          2.2537,
          2.3155,
          2.3798,
          2.4469,
          2.5169,
          2.5899,
          2.6662,
          2.7458,
          2.8291,
          2.9162,
          3.0074,
          3.103,
          3.2032,
          3.3083,
          3.4187,
          3.5347,
          3.6567,
          3.7852,
          3.9205,
          4.0632,
          4.2139,
          4.3731,
          4.5415,
          4.7198,
          4.8223,
          4.8414,
          4.8605,
          4.8797,
          4.8991,
          4.9185,
          4.9303,
          4.9342,
          4.9381,
          4.942,
          4.946,
          4.9499,
          4.9539,
          4.9578,
          4.9618,
          4.9647,
          4.9667,
          4.9687,
          4.9707,
          4.9727,
          4.9746,
          4.9766,
          4.9786,
          4.9806,
          4.9826,
          4.9846,
          4.9866,
          4.9886,
          4.9906,
          4.9926,
          4.9946,
          4.9966,
          4.9986,
          5.0016,
          5.0056,
          5.0096,
          5.0136,
          5.0176,
          5.0216,
          5.0257,
          5.0346,
          5.0449,
          5.055,
          5.0652,
          5.0754,
          5.1094,
          5.1678,
          5.2271,
          5.2875,
          5.349,
          5.4115,
          5.4752,
          5.54,
          5.6059,
          5.673,
          5.7413,
          5.8109,
          5.8817,
          5.9539,
          6.0274,
          6.1022,
          6.1785,
          6.2561,
          6.3353,
          6.416,
          6.4982,
          6.582,
          6.6675,
          6.7546,
          6.8434,
          6.934,
          7.0265,
          7.1207,
          7.2169,
          7.3151,
          7.4152,
          7.5175,
          7.6219,
          7.7284,
          7.8372,
          7.9483,
          8.0618,
          8.1778,
          8.2963,
          8.4173,
          8.541,
          8.6675,
          8.7968,
          8.9291,
          9.0643,
          9.2026,
          9.3441,
          9.4889,
          9.6371,
          9.7888,
          9.9441,
          10.103,
          10.266,
          10.433,
          10.604,
          10.779,
          10.959,
          11.143,
          11.331,
          11.525,
          11.724,
          11.927,
          12.137,
          12.351,
          12.572,
          12.798,
          13.031,
          13.27,
          13.515,
          13.768,
          14.015,
          14.17,
          14.304,
          14.441,
          14.579,
          14.72,
          14.862,
          15.007,
          15.154,
          15.302,
          15.454,
          15.607,
          15.763,
          15.921,
          16.081,
          16.244,
          16.409,
          16.577,
          16.747,
          16.92,
          17.096,
          17.275,
          17.456,
          17.64,
          17.827,
          18.017,
          18.21,
          18.407,
          18.606,
          18.809,
          19.015,
          19.225,
          19.438,
          19.654,
          19.874,
          20.098,
          20.326,
          20.557,
          20.793,
          21.033,
          21.276,
          21.524,
          21.777,
          22.034,
          22.295,
          22.561,
          22.832,
          23.108,
          23.389,
          23.675,
          23.966,
          24.263,
          24.565,
          24.873,
          25.187,
          25.507,
          25.833,
          26.165,
          26.504,
          26.849,
          27.201,
          27.56,
          27.926,
          28.299,
          28.681,
          29.069,
          29.466,
          29.871,
          30.284,
          30.706,
          31.137,
          31.577,
          32.026,
          32.485,
          32.954,
          33.434,
          33.923,
          34.424,
          34.936,
          35.459,
          35.994,
          36.364,
          36.561,
          36.76,
          36.96,
          37.162,
          37.365,
          37.571,
          37.778,
          37.986,
          38.197,
          38.329,
          38.382,
          38.435,
          38.489,
          38.542,
          38.596,
          38.628,
          38.639,
          38.65,
          38.66,
          38.747,
          38.768,
          38.776,
          38.785,
          38.793,
          38.802,
          38.81,
          38.819,
          38.827,
          38.836,
          38.844,
          38.853,
          38.861,
          38.87,
          38.879,
          38.887,
          38.896,
          38.904,
          38.913,
          38.921,
          38.943,
          38.974,
          39.007,
          39.029,
          39.04,
          39.05,
          39.083,
          39.138,
          39.193,
          39.248,
          39.303,
          39.358,
          39.497,
          39.72,
          39.945,
          40.171,
          40.4,
          40.631,
          40.864,
          41.099,
          41.335,
          41.574,
          41.815,
          42.058,
          42.303,
          42.551,
          42.8,
          43.052,
          43.306,
          43.562,
          43.82,
          44.081,
          44.344,
          44.61,
          44.878,
          45.148,
          45.421,
          45.696,
          45.973,
          46.254,
          46.537,
          46.822,
          47.11,
          47.401,
          47.694,
          47.99,
          48.289,
          48.591,
          48.895,
          49.203,
          49.513,
          49.826,
          50.143,
          50.462,
          50.784,
          51.11,
          51.438,
          51.77,
          52.105,
          52.443,
          52.785,
          53.043,
          53.216,
          53.391,
          53.566,
          53.741,
          53.918,
          54.096,
          54.274,
          54.391,
          54.445,
          54.499,
          54.553,
          54.607,
          54.661,
          54.715,
          54.77,
          54.824,
          54.879,
          54.933,
          54.97,
          54.988,
          55.006,
          55.024,
          55.043,
          55.061,
          55.079,
          55.098,
          55.116,
          55.134,
          55.153,
          55.171,
          55.189,
          55.208,
          55.226,
          55.244,
          55.263,
          55.281,
          55.299,
          55.318,
          55.336,
          55.355,
          55.373,
          55.392,
          55.41,
          55.428,
          55.447,
          55.465,
          55.484,
          55.502,
          55.521,
          55.539,
          55.558,
          55.576,
          55.595,
          55.614,
          55.632,
          55.651,
          55.669,
          55.688,
          55.706,
          55.725,
          55.744,
          55.762,
          55.781,
          55.8,
          55.818,
          55.837,
          55.856,
          55.874,
          55.893,
          55.912,
          55.93,
          55.949,
          55.968,
          55.987,
          56.005,
          56.024,
          56.043,
          56.062,
          56.08,
          56.099,
          56.118,
          56.137,
          56.156,
          56.175,
          56.193,
          56.212,
          56.231,
          56.25,
          56.269,
          56.288,
          56.307,
          56.326,
          56.344,
          56.363,
          56.382,
          56.401,
          56.42,
          56.439,
          56.458,
          56.477,
          56.496,
          56.515,
          56.534,
          56.553,
          56.572,
          56.591,
          56.61,
          56.629,
          56.648,
          56.668,
          56.687,
          56.706,
          56.725,
          56.763,
          56.821,
          56.878,
          56.936,
          56.993,
          57.051,
          57.109,
          57.167,
          57.225,
          57.283,
          57.342,
          57.4,
          57.458,
          57.517,
          57.575,
          57.703,
          57.899,
          58.097,
          58.296,
          58.495,
          58.696,
          58.898,
          59.101,
          59.304,
          59.509,
          59.715,
          59.922,
          60.13,
          60.34,
          60.55,
          60.761,
          60.974,
          61.187,
          61.402,
          61.618,
          61.835,
          62.053,
          62.272,
          62.493,
          62.715,
          62.937,
          63.161,
          63.387,
          63.613,
          63.841,
          64.07,
          64.3,
          64.531,
          64.764,
          64.997,
          65.233,
          65.469,
          65.707,
          65.946,
          66.186,
          66.367,
          66.488,
          66.61,
          66.731,
          66.853,
          66.976,
          67.099,
          67.222,
          67.308,
          67.358,
          67.407,
          67.457,
          67.583,
          67.638,
          67.668,
          67.688,
          67.697,
          67.707,
          67.717,
          67.727,
          67.737,
          67.746,
          67.756,
          67.766,
          67.776,
          67.786,
          67.795,
          67.84,
          67.921,
          68.022,
          68.072,
          68.121,
          68.245,
          68.444,
          68.644,
          68.845,
          69.046,
          69.249,
          69.452,
          69.656,
          69.861,
          70.068,
          70.275,
          70.483,
          70.691,
          70.901,
          71.112,
          71.324,
          71.536,
          71.75,
          71.964,
          72.18,
          72.396,
          72.614,
          72.832,
          73.051,
          73.272,
          73.493,
          73.715,
          73.939,
          74.163,
          74.389,
          74.615,
          74.843,
          75.071,
          75.301,
          75.532,
          75.763,
          75.996,
          76.23,
          76.465,
          76.701,
          76.938,
          77.176,
          77.415,
          77.656,
          77.897,
          78.14,
          78.384,
          78.629,
          78.875,
          79.122,
          79.371,
          79.62,
          79.871,
          80.123,
          80.376,
          80.631,
          80.886,
          81.143,
          81.401,
          81.66,
          81.921,
          82.183,
          82.446,
          82.71,
          82.976,
          83.242,
          83.51,
          83.78,
          84.051,
          84.323,
          84.596,
          84.871,
          85.147,
          85.424,
          85.703,
          85.983,
          86.264,
          86.547,
          86.832,
          87.117,
          87.404,
          87.693,
          87.983,
          88.274,
          88.567,
          88.861,
          89.157,
          89.454,
          89.753,
          90.053,
          90.355,
          90.658,
          90.963,
          91.269,
          91.577,
          91.886,
          92.197,
          92.51,
          92.824,
          93.14,
          93.457,
          93.776,
          94.097,
          94.419,
          94.743,
          95.069,
          95.396,
          95.725,
          96.056,
          96.388,
          96.722,
          97.058,
          97.396,
          97.735,
          98.076,
          98.419,
          98.764,
          99.11,
          99.459,
          99.809,
          100.16,
          100.52,
          100.87,
          101.23,
          101.59,
          101.95,
          102.31,
          102.68,
          103.05,
          103.42,
          103.79,
          104.16,
          104.54,
          104.91,
          105.29,
          105.67,
          106.06,
          106.44,
          106.83,
          107.22,
          107.61,
          108.01,
          108.4,
          108.8,
          109.2,
          109.61,
          110.01,
          110.42,
          110.83,
          111.24,
          111.66,
          112.07,
          112.49,
          112.91,
          113.34,
          113.76,
          114.19,
          114.62,
