{
  "entry": "13875",
  "last_updated": "2006-07-20",
  "number_of_revisions": "3",
  "histories": [
    {
      "x4_code": "(20030303C)",
      "free_txt": [
        " VM+DW"
      ]
    }
  ],
  "bib_record": {
    "authors": [
      {
        "name": "J.A.Harvey"
      }
    ],
    "institutes": [
      {
        "x4_code": "(1USAORL)",
        "free_txt": []
      }
    ],
    "references": {
      "0": [
        {
          "x4_code": "(W,HARVEY,1975)",
          "free_txt": [],
          "publication_year": "1975"
        }
      ]
    },
    "facilities": {
      "0": [
        {
          "x4_code": "(LINAC,1USAORL)",
          "free_txt": [
            " ORELA"
          ],
          "facility_type": "(LINAC)",
          "institute": "(1USAORL)"
        }
      ]
    }
  },
  "data_tables": {
    "001": {
      "extra_information": {
        "detector": {
          "0": [
            {
              "x4_code": "(GLASD)",
              "free_txt": [
                " 0.5 inch 6Li glass detector."
              ]
            }
          ]
        },
        "err-analys": {
          "0": [
            {
              "x4_code": "(DATA-ERR)",
              "free_txt": [
                " Absolute uncertainty."
              ]
            }
          ]
        },
        "facility": {
          "0": [
            {
              "x4_code": "(LINAC,1USAORL)",
              "free_txt": [
                " ORELA"
              ]
            }
          ]
        },
        "method": {
          "0": [
            {
              "x4_code": "(TOF)",
              "free_txt": [
                " 17.884-m flight path."
              ]
            }
          ]
        },
        "status": {
          "0": [
            {
              "x4_code": null,
              "free_txt": [
                "Data produced from J. Harvey files by D. Wiarda."
              ]
            },
            {
              "x4_code": "(COREL,13774001)",
              "free_txt": [
                " Similar to run 8180, but with lower",
                "  repitition rate."
              ]
            }
          ]
        }
      }
    },
    "002": {
      "reaction": {
        "0": {
          "x4_code": "(28-NI-59(N,TOT),,SIG)",
          "0": {
            "code": [
              "28-NI-59",
              [
                "N,TOT"
              ],
              ",,SIG"
            ],
            "type": null,
            "target": "28-NI-59",
            "process": "N,TOT",
            "sf49": ",,SIG",
            "sf4": null,
            "sf5": null,
            "sf6": "SIG",
            "sf7": null,
            "sf8": null,
            "sf9": null
          },
          "type": null,
          "free_text": " Run ID: 8188."
        }
      },
      "extra_information": {
        "sample": {
          "0": [
            {
              "x4_code": null,
              "free_txt": [
                "59Ni sample. Sample thickness 9.099E-04 atoms/b",
                " (1/N = 1099 b/atom)."
              ]
            }
          ]
        }
      },
      "common": null,
      "data": {
        "heads": [
          "EN",
          "DATA",
          "DATA-ERR"
        ],
        "units": [
          "EV",
          "B",
          "B"
        ],
        "data": [
          [
            148360.0,
            136400.0,
            125830.0,
            116450.0,
            108080.0,
            100570.0,
            93828.0,
            87738.0,
            82223.0,
            77211.0,
            72645.0,
            68472.0,
            64648.0,
            61136.0,
            57903.0,
            54919.0,
            52161.0,
            49605.0,
            47232.0,
            45026.0,
            42971.0,
            41053.0,
            39261.0,
            37584.0,
            36012.0,
            34537.0,
            33150.0,
            31845.0,
            30616.0,
            29457.0,
            28362.0,
            27327.0,
            26348.0,
            25421.0,
            24541.0,
            23707.0,
            22914.0,
            22161.0,
            21444.0,
            20761.0,
            20110.0,
            19490.0,
            18898.0,
            18332.0,
            17791.0,
            17274.0,
            16779.0,
            16306.0,
            15851.0,
            15416.0,
            14998.0,
            14597.0,
            14212.0,
            13842.0,
            13487.0,
            13144.0,
            12815.0,
            12498.0,
            12192.0,
            11898.0,
            11614.0,
            11340.0,
            11076.0,
            10821.0,
            10574.0,
            10336.0,
            10106.0,
            9883.5,
            9762.7,
            9738.9,
            9715.2,
            9691.5,
            9667.9,
            9644.4,
            9621.0,
            9597.7,
            9574.5,
            9551.4,
            9528.3,
            9505.3,
            9482.4,
            9459.6,
            9436.9,
            9414.2,
            9391.7,
            9369.2,
            9346.8,
            9324.5,
            9302.2,
            9280.0,
            9258.0,
            9236.0,
            9214.0,
            9192.2,
            9170.4,
            9148.7,
            9127.1,
            9105.5,
            9084.1,
            9062.7,
            9041.4,
            9020.1,
            8999.0,
            8977.9,
            8956.9,
            8935.9,
            8915.1,
            8894.3,
            8873.5,
            8852.9,
            8832.3,
            8811.8,
            8791.4,
            8690.5,
            8512.8,
            8340.5,
            8173.4,
            8011.2,
            7853.9,
            7701.1,
            7552.7,
            7408.6,
            7268.6,
            7132.5,
            7000.2,
            6871.5,
            6746.4,
            6678.2,
            6664.7,
            6651.3,
            6637.9,
            6624.5,
            6611.2,
            6597.9,
            6584.7,
            6571.5,
            6558.3,
            6545.2,
            6532.1,
            6519.0,
            6506.0,
            6493.1,
            6480.1,
            6467.2,
            6454.4,
            6441.6,
            6428.8,
            6416.1,
            6403.4,
            6390.7,
            6378.1,
            6365.5,
            6352.9,
            6340.4,
            6327.9,
            6315.5,
            6303.1,
            6290.7,
            6278.4,
            6266.1,
            6253.8,
            6241.6,
            6229.4,
            6217.3,
            6205.2,
            6193.1,
            6181.0,
            6169.0,
            6157.1,
            6145.1,
            6133.2,
            6121.3,
            6109.5,
            6097.7,
            6085.9,
            6074.2,
            6062.5,
            6050.8,
            6039.2,
            6027.6,
            6016.0,
            6004.5,
            5993.0,
            5981.6,
            5970.1,
            5958.7,
            5947.3,
            5936.0,
            5924.7,
            5913.4,
            5902.2,
            5891.0,
            5879.8,
            5868.7,
            5857.6,
            5846.5,
            5835.4,
            5824.4,
            5813.4,
            5802.5,
            5791.6,
            5780.7,
            5769.8,
            5759.0,
            5748.2,
            5737.4,
            5726.7,
            5716.0,
            5705.3,
            5694.6,
            5684.0,
            5673.4,
            5662.8,
            5652.3,
            5641.8,
            5631.3,
            5620.9,
            5610.5,
            5600.1,
            5589.7,
            5579.4,
            5569.1,
            5558.8,
            5548.6,
            5538.4,
            5528.2,
            5518.0,
            5507.9,
            5497.8,
            5487.7,
            5477.7,
            5427.9,
            5339.9,
            5254.1,
            5170.3,
            5088.4,
            5008.5,
            4930.5,
            4854.3,
            4779.8,
            4707.1,
            4635.9,
            4566.4,
            4498.5,
            4432.0,
            4367.0,
            4303.4,
            4241.2,
            4180.4,
            4120.8,
            4062.5,
            4005.4,
            3949.6,
            3894.8,
            3841.3,
            3788.8,
            3737.4,
            3687.0,
            3637.6,
            3589.2,
            3541.8,
            3495.3,
            3449.7,
            3405.1,
            3361.2,
            3318.2,
            3276.1,
            3234.7,
            3194.1,
            3154.3,
            3115.2,
            3076.8,
            3039.1,
            3002.2,
            2965.9,
            2930.2,
            2895.2,
            2860.8,
            2827.0,
            2793.8,
            2761.2,
            2729.2,
            2697.7,
            2666.8,
            2636.4,
            2606.5,
            2577.1,
            2548.2,
            2519.8,
            2491.8,
            2464.3,
            2437.3,
            2410.7,
            2384.6,
            2358.9,
            2333.5,
            2308.6,
            2284.1,
            2260.0,
            2236.3,
            2212.9,
            2189.9,
            2167.2,
            2144.9,
            2123.0,
            2101.4,
            2080.1,
            2059.1,
            2038.4,
            2018.1,
            1998.0,
            1978.3,
            1958.8,
            1939.7,
            1920.8,
            1902.2,
            1883.8,
            1865.7,
            1847.9,
            1830.4,
            1813.0,
            1796.0,
            1779.1,
            1762.5,
            1746.2,
            1730.0,
            1714.1,
            1698.4,
            1682.9,
            1667.7,
            1652.6,
            1637.7,
            1623.1,
            1608.6,
            1594.3,
            1580.2,
            1566.3,
            1552.6,
            1539.1,
            1525.7,
            1512.5,
            1499.5,
            1486.7,
            1474.0,
            1461.4,
            1449.1,
            1436.9,
            1424.8,
            1412.9,
            1401.2,
            1389.5,
            1378.1,
            1366.8,
            1355.6,
            1344.5,
            1333.6,
            1322.8,
            1312.2,
            1301.6,
            1291.2,
            1281.0,
            1270.8,
            1260.8,
            1250.9,
            1241.1,
            1231.4,
            1221.8,
            1212.4,
            1203.0,
            1193.8,
            1184.7,
            1175.6,
            1166.7,
            1157.9,
            1149.1,
            1140.5,
            1132.0,
            1123.5,
            1115.2,
            1107.0,
            1098.8,
            1090.7,
            1082.7,
            1074.9,
            1067.1,
            1059.3,
            1051.7,
            1044.1,
            1036.7,
            1029.3,
            1021.9,
            1014.7,
            1007.5,
            1000.5,
            993.45,
            986.51,
            979.65,
            972.85,
            966.13,
            959.48,
            952.89,
            946.37,
            939.92,
            933.53,
            927.21,
            920.96,
            914.76,
            908.63,
            902.56,
            896.55,
            890.6,
            884.71,
            878.88,
            873.1,
            867.38,
            861.72,
            856.11,
            850.56,
            845.06,
            839.62,
            834.23,
            828.88,
            823.59,
            818.35,
            813.16,
            808.02,
            802.93,
            797.89,
            792.89,
            787.94,
            783.04,
            778.18,
            773.37,
            768.6,
            763.87,
            759.19,
            754.56,
            749.96,
            745.41,
            740.89,
            736.42,
            731.99,
            727.6,
            723.25,
            718.93,
            714.66,
            710.42,
            706.22,
            702.06,
            697.94,
            693.85,
            689.79,
            685.78,
            681.79,
            677.85,
            673.93,
            670.05,
            666.21,
            662.39,
            658.61,
            654.86,
            651.15,
            647.46,
            643.81,
            640.18,
            636.59,
            633.03,
            629.49,
            625.99,
            622.52,
            619.07,
            615.65,
            612.27,
            608.91,
            605.57,
            602.27,
            598.99,
            595.74,
            592.51,
            589.31,
            586.14,
            582.99,
            579.87,
            576.77,
            573.7,
            570.65,
            567.62,
            564.62,
            561.65,
            560.0,
            559.67,
            559.35,
            559.02,
            558.69,
            558.37,
            558.04,
            557.71,
            557.39,
            557.06,
            556.74,
            556.41,
            556.09,
            555.76,
            555.44,
            555.11,
            554.79,
            554.47,
            554.14,
            553.82,
            553.5,
            553.18,
            552.85,
            552.53,
            552.21,
            551.89,
            551.57,
            551.25,
            550.93,
            550.61,
            550.29,
            549.97,
            549.65,
            549.33,
            549.01,
            548.7,
            547.11,
            544.27,
            541.45,
            538.66,
            535.88,
            533.13,
            530.4,
            527.69,
            525.0,
            522.33,
            519.68,
            517.05,
            514.44,
            511.85,
            509.29,
            506.73,
            504.2,
            501.69,
            499.2,
            496.72,
            494.27,
            491.83,
            489.41,
            487.0,
            484.62,
            482.25,
            479.9,
            477.57,
            475.25,
            472.95,
            470.67,
            468.4,
            466.15,
            463.92,
            461.7,
            459.5,
            457.31,
            455.14,
            452.99,
            450.85,
            448.72,
            446.61,
            444.52,
            442.44,
            440.37,
            438.32,
            436.28,
            434.26,
            432.25,
            430.26,
            428.28,
            426.31,
            424.36,
            422.42,
            420.49,
            418.5,
            415.21,
            411.46,
            407.77,
            404.12,
            400.53,
            396.98,
            393.48,
            390.03,
            386.62,
            383.25,
            379.93,
            376.66,
            373.42,
            370.23,
            367.07,
            363.96,
            360.89,
            357.85,
            354.86,
            351.9,
            348.97,
            346.09,
            343.24,
            340.42,
            337.64,
            334.89,
            332.18,
            329.5,
            326.85,
            324.23,
            321.65,
            319.09,
            316.57,
            314.08,
            311.61,
            309.17,
            306.77,
            304.39,
            302.04,
            299.71,
            297.41,
            295.14,
            292.89,
            290.67,
            288.48,
            286.31,
            284.16,
            282.04,
            279.94,
            277.87,
            275.82,
            273.79,
            271.78,
            269.79,
            267.83,
            265.89,
            263.97,
            262.07,
            260.19,
            258.33,
            256.49,
            254.67,
            252.87,
            251.08,
            249.32,
            247.58,
            245.85,
            244.14,
            242.45,
            240.78,
            239.12,
            237.48,
            235.86,
            234.26,
            232.67,
            231.09,
            229.54,
            228.0,
            226.47,
            224.96,
            223.46,
            221.98,
            220.52,
            219.07,
            217.63,
            216.21,
            214.8,
            213.4,
            212.02,
            210.65,
            209.29,
            207.95,
            206.62,
            205.31,
            204.0,
            202.71,
            201.43,
            200.16,
            198.91,
            197.66,
            196.43,
            195.21,
            194.0,
            192.8,
            191.62,
            190.44,
            189.27,
            188.12,
            186.97,
            185.84,
            184.72,
            183.6,
            182.5,
            181.41,
            180.32,
            179.25,
            178.19,
            177.13,
            176.09,
            175.05,
            174.02,
            173.0,
            171.99,
            170.99,
            170.0,
            169.02,
            168.04,
            167.08,
            166.12,
            165.17,
            164.23,
            163.29,
            162.37,
            161.45,
            160.54,
            159.64,
            158.74,
            157.86,
            156.98,
            156.1,
            155.24,
            154.38,
            153.53,
            152.69,
            151.85,
            151.02,
            150.2,
            149.38,
            148.57,
            147.77,
            146.97,
            146.18,
            145.39,
            144.62,
            143.84,
            143.08,
            142.32,
            141.57,
            140.82,
            140.08,
            139.34,
            138.61,
            137.89,
            137.17,
            136.46,
            135.75,
            135.05,
            134.35,
            133.66,
            132.97,
            132.29,
            131.62,
            130.95,
            130.28,
            129.62,
            128.97,
            128.32,
            127.67,
            127.03,
            126.4,
            125.77,
            125.14,
            124.52,
            123.9,
            123.29,
            122.68,
            122.08,
            121.48,
            120.89,
            120.3,
            119.71,
            119.13,
            118.55,
            117.98,
            117.41,
            116.85,
            116.29,
            115.73,
            115.18,
            114.63,
            114.08,
            113.54,
            113.0,
            112.47,
            111.94,
            111.42,
            110.89,
            110.38,
            109.86,
            109.35,
            108.84,
            108.34,
            107.84,
            107.34,
            106.85,
            106.36,
            105.87,
            105.39,
            104.91,
            104.43,
            103.95,
            103.48,
            102.78,
            101.86,
            100.95,
            100.05,
            99.169,
            98.295,
            97.433,
            96.581,
            95.741,
            94.912,
            94.093,
            93.285,
            92.488,
            91.7,
            90.923,
            90.155,
            89.398,
            88.649,
            87.91,
            87.18,
            86.46,
            85.748,
            85.045,
            84.35,
            83.664,
            82.986,
            82.317,
            81.656,
            81.002,
