{
  "bib": {
    "title": "Neutron total cross-section measurements with the6Li-ZnS(Ag) scintillator (BC702) employing a neutronand noise separation technique",
    "authors": [
      {
        "name": "S.G.Shin"
      },
      {
        "name": "Y.U.Kye"
      },
      {
        "name": "M.H.Cho"
      },
      {
        "name": "W.Namkung"
      },
      {
        "name": "G.N.Kim"
      },
      {
        "name": "M.W.Lee"
      },
      {
        "name": "Y.R.Kang"
      }
    ],
    "institutes": [
      {
        "x4_code": "(3KORPUE)",
        "free_txt": ""
      },
      {
        "x4_code": "(3KORKNU)",
        "free_txt": ""
      },
      {
        "x4_code": "(3KORDRM)",
        "free_txt": ""
      }
    ],
    "references": {
      "0": [
        {
          "x4_code": "(J,KPS,64,1288,2014)",
          "free_txt": [],
          "publication_year": "2014"
        }
      ]
    },
    "facility": {
      "0": [
        {
          "x4_code": "(LINAC,3KORPUE)",
          "free_txt": [
            " Pohang Neutron Facility (PNF)"
          ],
          "facility_type": "(LINAC)",
          "insitute": "(3KORPUE)"
        }
      ]
    },
    "history": [
      {
        "x4_code": "(20190703R)",
        "free_txt": [
          " Total CS data received from S.G.Shin"
        ]
      },
      {
        "x4_code": "(20190709C)",
        "free_txt": [
          " S.C.Yang"
        ]
      }
    ]
  },
  "30845-001": {
    "extra_information": {
      "detector": {
        "0": [
          {
            "x4_code": "(SCIN)",
            "free_txt": [
              " 6Li-ZnS(Ag) scintillator (BC702) with a",
              " diameter 127 mm and a thickness of 6.35 mm"
            ]
          }
        ]
      },
      "err-analys": {
        "0": [
          {
            "x4_code": "(ERR-S)",
            "free_txt": [
              " Statistical error"
            ]
          }
        ]
      },
      "facility": {
        "0": [
          {
            "x4_code": "(LINAC,3KORPUE)",
            "free_txt": [
              " Pohang Neutron Facility (PNF)"
            ]
          }
        ]
      },
      "inc-source": {
        "0": [
          {
            "x4_code": "(PHOTO)",
            "free_txt": [
              " Ta(g,n) photonuclear reaction"
            ]
          }
        ]
      },
      "method": {
        "0": [
          {
            "x4_code": "(TOF,TRN)",
            "free_txt": [
              " 12 m flight path. The Co, Ta and Cd notch",
              " filters were used for the background measurement and",
              " the energy calibration."
            ]
          }
        ]
      },
      "sample": {
        "0": [
          {
            "x4_code": null,
            "free_txt": [
              "Dy metal plates",
              " - purity: >99.9%, size: 10 cm x 10 cm,",
              "  thickness: 0.5 mm (1.5824 atoms/mbarn)"
            ]
          }
        ]
      },
      "status": {
        "0": [
          {
            "x4_code": "(APRVD)",
            "free_txt": [
              " Approved by M.H.Cho (2019-07-12)"
            ]
          }
        ]
      }
    }
  },
  "30845-002": {
    "reaction": {
      "0": {
        "x4_code": "(66-DY-0(N,TOT),,SIG)",
        "0": {
          "code": [
            "66-DY-0",
            [
              "N,TOT"
            ],
            ",,SIG"
          ],
          "type": null,
          "target": "66-DY-0",
          "process": "N,TOT",
          "sf49": ",,SIG",
          "sf4": null,
          "sf5": null,
          "sf6": "SIG",
          "sf7": null,
          "sf8": null,
          "sf9": null
        },
        "type": null,
        "free_text": ""
      }
    },
    "extra_information": {
      "status": {
        "0": [
          {
            "x4_code": "(TABLE)",
            "free_txt": [
              " Fig.7 of J.Korean Phys.Soc.64,1288,2014"
            ]
          }
        ]
      }
    },
    "common": null,
    "data": {
      "heads": [
        "EN",
        "EN-ERR",
        "DATA",
        "ERR-S"
      ],
      "units": [
        "EV",
        "EV",
        "B",
        "B"
      ],
      "data": [
        [
          102.616,
          100.16,
          97.791,
          95.505,
          93.2983,
          91.1671,
          89.1082,
          87.1182,
          85.1941,
          83.3331,
          81.5324,
          79.7895,
          78.1018,
          76.4671,
          74.8833,
          73.3481,
          71.8596,
          70.416,
          69.0155,
          67.6564,
          66.337,
          65.0558,
          63.8114,
          62.6023,
          61.4273,
          60.2851,
          59.1744,
          58.0941,
          57.0432,
          56.0205,
          55.0251,
          54.056,
          53.1122,
          52.193,
          51.2974,
          50.4247,
          49.574,
          48.7447,
          47.9361,
          47.1473,
          46.3779,
          45.6272,
          44.8946,
          44.1795,
          43.4813,
          42.7995,
          42.1337,
          41.4832,
          40.8477,
          40.2267,
          39.6198,
          38.0198,
          36.6479,
          35.3489,
          34.1178,
          32.9499,
          31.841,
          30.7871,
          28.8304,
          27.9213,
          27.0545,
          26.2275,
          25.4378,
          24.6833,
          23.9618,
          23.2715,
          22.6106,
          21.9775,
          21.3706,
          20.7885,
          20.2298,
          19.6934,
          19.1781,
          18.6827,
          18.2062,
          17.7478,
          17.3064,
          16.8813,
          16.4717,
          16.0768,
          15.696,
          15.3285,
          14.9737,
          14.6312,
          14.3003,
          13.9804,
          13.6712,
          13.3721,
          13.0828,
          12.8027,
          12.5315,
          12.2689,
          12.0144,
          11.7678,
          11.5286,
          11.2967,
          11.0718,
          10.8534,
          10.6415,
          10.4357,
          10.2358,
          10.0417,
          9.76058,
          9.4038,
          9.06624,
          8.74653,
          8.44343,
          8.15583,
          7.88267,
          7.62301,
          7.37597,
          7.14075,
          6.9166,
          6.70284,
          6.49884,
          6.30402,
          6.11782,
          5.93976,
          5.76936,
          5.60618,
          5.44984,
          5.29994,
          5.15614,
          5.01812,
          4.88556,
          4.75819,
          4.63574,
          4.51795,
          4.4046,
          4.29546,
          4.19032,
          4.089,
          3.99131,
          3.89708,
          3.80615,
          3.71836,
          3.63358,
          3.55166,
          3.47248,
          3.39592,
          3.32187,
          3.25021,
          3.18085,
          3.11368,
          3.04862,
          2.98557,
          2.92446,
          2.86521,
          2.80774,
          2.75198,
          2.69787,
          2.64534,
          2.59433,
          2.54478,
          2.49663,
          2.44984,
          2.40435,
          2.36012,
          2.3171,
          2.27524,
          2.2345,
          2.19485,
          2.15625,
          2.11866,
          2.08204,
          2.04636,
          2.01159,
          1.9777,
          1.94466,
          1.91244,
          1.88102,
          1.85036,
          1.82044,
          1.79125,
          1.76275,
          1.73493,
          1.70776,
          1.68122,
          1.6553,
          1.62998,
          1.60522,
          1.58103,
          1.55739,
          1.53426,
          1.51165,
          1.48954,
          1.46791,
          1.44674,
          1.42603,
          1.40576,
          1.38592,
          1.3665,
          1.34748,
          1.32886,
          1.31062,
          1.29275,
          1.27525,
          1.2581,
          1.24129,
          1.22482,
          1.20867,
          1.19285,
          1.17732,
          1.16211,
          1.14718,
          1.13254,
          1.11818,
          1.10409,
          1.09026,
          1.07669,
          1.06338,
          1.05031,
          1.03747,
          1.02488,
          1.01251,
          1.00036,
          0.99437,
          0.97093,
          0.94832,
          0.92648,
          0.90539,
          0.88501,
          0.86531,
          0.84627,
          0.82784,
          0.81001,
          0.79275,
          0.77604,
          0.75984,
          0.74415,
          0.72894,
          0.7142,
          0.69989,
          0.68602,
          0.67254,
          0.65947,
          0.64677,
          0.63443,
          0.62245,
          0.6108,
          0.59947,
          0.58846,
          0.57774,
          0.56732,
          0.55718,
          0.5473,
          0.53769,
          0.52833,
          0.51921,
          0.51032,
          0.50166,
          0.49322,
          0.48499,
          0.47696,
          0.46913,
          0.4615,
          0.45404,
          0.44677,
          0.43967,
          0.43274,
          0.42597,
          0.41936,
          0.4129,
          0.40659,
          0.40042,
          0.3944,
          0.3885,
          0.38274,
          0.37711,
          0.3716,
          0.3662,
          0.36093,
          0.35577,
          0.35072,
          0.34577,
          0.34093,
          0.33619,
          0.33155,
          0.327,
          0.32255,
          0.31819,
          0.31391,
          0.30972,
          0.30562,
          0.30159,
          0.29764,
          0.29378,
          0.28998,
          0.28626,
          0.28261,
          0.27903,
          0.27552,
          0.27207,
          0.26869,
          0.26537,
          0.26211,
          0.25891,
          0.25577,
          0.25268,
          0.24966,
          0.24668,
          0.24376,
          0.24089,
          0.23807,
          0.2353,
          0.23258,
          0.2299,
          0.22727,
          0.22469,
          0.22215,
          0.21965,
          0.21719,
          0.21478,
          0.2124,
          0.21007,
          0.20777,
          0.20551,
          0.20328,
          0.2011,
          0.19894,
          0.19683,
          0.19474,
          0.19269,
          0.19067,
          0.18868,
          0.18673,
          0.1848,
          0.1829,
          0.18104,
          0.1792,
          0.17738,
          0.1756,
          0.17384,
          0.17211,
          0.17041,
          0.16873,
          0.16707,
          0.16544,
          0.16383,
          0.16225,
          0.16069,
          0.15915,
          0.15763,
          0.15614,
          0.15466,
          0.15321,
          0.15178,
          0.15037,
          0.14897,
          0.1476,
          0.14624,
          0.14491,
          0.14359,
          0.14229,
          0.141,
          0.13974,
          0.13849,
          0.13726,
          0.13604,
          0.13484,
          0.13366,
          0.13249,
          0.13134,
          0.1302,
          0.12908,
          0.12797,
          0.12688,
          0.12579,
          0.12473,
          0.12368,
          0.12264,
          0.12161,
          0.12059,
          0.11959,
          0.1186,
          0.11763,
          0.11666,
          0.11571,
          0.11477,
          0.11384,
          0.11292,
          0.11201,
          0.11112,
          0.11023,
          0.10935,
          0.10849,
          0.10763,
          0.10679,
          0.10596,
          0.10513,
          0.10432,
          0.10351,
          0.10271,
          0.10193,
          0.10115,
          0.10038,
          0.09962,
          0.09886,
          0.09812,
          0.09738,
          0.09666,
          0.09594,
          0.09523,
          0.09452,
          0.09383,
          0.09314,
          0.09246,
          0.09179,
          0.09112,
          0.09046,
          0.08981,
          0.08917,
          0.08853,
          0.0879,
          0.08728,
          0.08666,
          0.08605,
          0.08545,
          0.08485,
          0.08426,
          0.08367,
          0.08309,
          0.08252,
          0.08195,
          0.08139,
          0.08083,
          0.08028,
          0.07974,
          0.0792,
          0.07867,
          0.07814,
          0.07762,
          0.0771,
          0.07659,
          0.07608,
          0.07558,
          0.07508,
          0.07459,
          0.0741,
          0.07361,
          0.07314,
          0.07266,
          0.07219,
          0.07173,
          0.07127,
          0.07081,
          0.07036,
          0.06992,
          0.06947,
          0.06903,
          0.0686,
          0.06817,
          0.06774,
          0.06732,
          0.0669,
          0.06649,
          0.06608,
          0.06567,
          0.06527,
          0.06487,
          0.06447,
          0.06408,
          0.06369,
          0.06331,
          0.06293,
          0.06255,
          0.06217,
          0.0618,
          0.06143,
          0.06107,
          0.06071,
          0.06035,
          0.05999,
          0.05964,
          0.05929,
          0.05895,
          0.0586,
          0.05826,
          0.05793,
          0.05759,
          0.05726,
          0.05693,
          0.05661,
          0.05629,
          0.05597,
          0.05565,
          0.05533,
          0.05502,
          0.05471,
          0.05441,
          0.0541,
          0.0538,
          0.0535,
          0.05321,
          0.05291,
          0.05262,
          0.05233,
          0.05204,
          0.05176,
          0.05148,
          0.0512,
          0.05092,
          0.05064,
          0.05037,
          0.0501,
          0.04983,
          0.04956,
          0.0493,
          0.04904,
          0.04878,
          0.04852,
          0.04826,
          0.04801,
          0.04776,
          0.04751,
          0.04726,
          0.04701,
          0.04677,
          0.04653,
          0.04629,
          0.04605,
          0.04581,
          0.04557,
          0.04534,
          0.04511,
          0.04488,
          0.04465,
          0.04443,
          0.0442,
          0.04398,
          0.04376,
          0.04354,
          0.04332,
          0.0431,
          0.04289,
          0.04268,
          0.04247,
          0.04226,
          0.04205,
          0.04184,
          0.04164,
          0.04143,
          0.04123,
          0.04103,
          0.04083,
          0.04063,
          0.04044,
          0.04024,
          0.04005,
          0.03986,
          0.03966,
          0.03948,
          0.03929,
          0.0391,
          0.03892,
          0.03873,
          0.03855,
          0.03837,
          0.03819,
          0.03801,
          0.03783,
          0.03765,
          0.03748,
          0.0373,
          0.03713,
          0.03696,
          0.03679,
          0.03662,
          0.03645,
          0.03629,
          0.03612,
          0.03596,
          0.03579,
          0.03563,
          0.03547,
          0.03531,
          0.03515,
          0.03499,
          0.03483,
          0.03468,
          0.03452,
          0.03437,
          0.03422,
          0.03406,
          0.03391,
          0.03376,
          0.03362,
          0.03347,
          0.03332,
          0.03317,
          0.03303,
          0.03289,
          0.03274,
          0.0326,
          0.03246,
          0.03232,
          0.03218,
          0.03204,
          0.0319,
          0.03177,
          0.03163,
          0.0315,
          0.03136,
          0.03123,
          0.0311,
          0.03097,
          0.03083,
          0.0307,
          0.03058,
          0.03045,
          0.03032,
          0.03019,
          0.03007,
          0.02994,
          0.02982,
          0.02969,
          0.02957,
          0.02945,
          0.02933,
          0.02921,
          0.02909,
          0.02897,
          0.02885,
          0.02873,
          0.02862,
          0.0285,
          0.02839,
          0.02827,
          0.02816,
          0.02804,
          0.02793,
          0.02782,
          0.02771
        ],
        [
          3.7934,
          3.65861,
          3.53015,
          3.40764,
          3.29075,
          3.17916,
          3.07256,
          2.97069,
          2.87329,
          2.7801,
          2.69091,
          2.60551,
          2.52369,
          2.44526,
          2.37007,
          2.29793,
          2.22869,
          2.16222,
          2.09837,
          2.03702,
          1.97804,
          1.92132,
          1.86676,
          1.81425,
          1.76369,
          1.71501,
          1.6681,
          1.62289,
          1.5793,
          1.53727,
          1.49672,
          1.45759,
          1.41981,
          1.38333,
          1.3481,
          1.31405,
          1.28114,
          1.24933,
          1.21857,
          1.18881,
          1.16001,
          1.13214,
          1.10516,
          1.07903,
          1.05372,
          1.0292,
          1.00544,
          0.9824,
          0.96007,
          0.93841,
          0.9174,
          1.58387,
          1.49924,
          1.42055,
          1.34729,
          1.27898,
          1.21522,
          1.15564,
          1.0477,
          0.99875,
          0.95281,
          0.90966,
          0.86907,
          0.83087,
          0.79489,
          0.76095,
          0.72893,
          0.69868,
          0.67008,
          0.64303,
          0.61742,
          0.59315,
          0.57015,
          0.54832,
          0.52759,
          0.5079,
          0.48918,
          0.47137,
          0.45441,
          0.43826,
          0.42288,
          0.4082,
          0.3942,
          0.38083,
          0.36806,
          0.35586,
          0.34419,
          0.33303,
          0.32235,
          0.31212,
          0.30233,
          0.29293,
          0.28393,
          0.27529,
          0.267,
          0.25904,
          0.25139,
          0.24405,
          0.23699,
          0.23019,
          0.22366,
          0.21737,
          0.38494,
          0.36412,
          0.34477,
          0.32677,
          0.31,
          0.29437,
          0.27977,
          0.26612,
          0.25335,
          0.24138,
          0.23016,
          0.21963,
          0.20973,
          0.20041,
          0.19164,
          0.18338,
          0.17559,
          0.16823,
          0.16128,
          0.15471,
          0.14849,
          0.1426,
          0.13702,
          0.13173,
          0.1267,
          0.12193,
          0.1174,
          0.11309,
          0.10899,
          0.10508,
          0.10136,
          0.09782,
          0.09444,
          0.09121,
          0.08813,
          0.08518,
          0.08237,
          0.07968,
          0.07711,
          0.07464,
          0.07228,
          0.07002,
          0.06785,
          0.06577,
          0.06378,
          0.06187,
          0.06003,
          0.05826,
          0.05656,
          0.05493,
          0.05336,
          0.05185,
          0.0504,
          0.049,
          0.04766,
          0.04636,
          0.04511,
          0.0439,
          0.04274,
          0.04161,
          0.04053,
          0.03948,
          0.03847,
          0.0375,
          0.03655,
          0.03564,
          0.03476,
          0.03391,
          0.03308,
          0.03228,
          0.03151,
          0.03076,
          0.03004,
          0.02934,
          0.02866,
          0.028,
          0.02736,
          0.02674,
          0.02614,
          0.02556,
          0.02499,
          0.02444,
          0.02391,
          0.02339,
          0.02289,
          0.0224,
          0.02193,
          0.02147,
          0.02102,
          0.02058,
          0.02016,
          0.01975,
          0.01935,
          0.01896,
          0.01858,
          0.01821,
          0.01785,
          0.0175,
          0.01716,
          0.01683,
          0.0165,
